File: src/old_TGA/Er_TGA.csv
temperature,rate_3,rate_5,rate_10,rate_3_diff,rate_5_diff,rate_10_diff,rate_3_diff_reaction_0,rate_3_diff_reaction_1,rate_3_diff_reaction_2,rate_3_diff_reaction_3,rate_3_diff_reaction_4,rate_3_diff_reaction_5,rate_3_diff_cumulative,rate_5_diff_reaction_0,rate_5_diff_reaction_1,rate_5_diff_reaction_2,rate_5_diff_reaction_3,rate_5_diff_reaction_4,rate_5_diff_reaction_5,rate_5_diff_cumulative,rate_10_diff_reaction_0,rate_10_diff_reaction_1,rate_10_diff_reaction_2,rate_10_diff_reaction_3,rate_10_diff_reaction_4,rate_10_diff_reaction_5,rate_10_diff_cumulative
30.661,100,100,100,0,0,0,9.07E-07,9.17E-31,4.31E-06,6.26E-180,2.59E-50,4.28E-39,5.22E-06,3.85E-06,2.27E-11,1.99E-08,2.39E-146,5.92E-51,7.43E-32,3.87E-06,1.65E-07,5.15E-15,1.49E-10,1.33E-174,2.17E-54,1.06E-41,1.65E-07
43.07489,99.70112,100.393,99.65211,-0.00318544,0.002302933,-0.000639545,1.88E-06,3.18E-29,7.08E-06,3.43E-173,1.62E-48,9.54E-38,8.96E-06,7.39E-06,7.87E-11,4.13E-08,5.89E-141,3.71E-49,8.90E-31,7.43E-06,3.58E-07,2.43E-14,3.62E-10,1.30E-168,1.36E-52,2.36E-40,3.58E-07
55.48879,99.73312,100.413,99.65931,-0.001909815,-0.001303318,1.43559E-05,3.91E-06,1.10E-27,1.16E-05,1.88E-166,1.02E-46,2.13E-36,1.55E-05,1.42E-05,2.72E-10,8.57E-08,1.45E-135,2.33E-47,1.07E-29,1.43E-05,7.78E-07,1.15E-13,8.79E-10,1.28E-162,8.51E-51,5.25E-39,7.79E-07
67.90268,99.76222,100.407,99.67603,-0.001167759,-0.001618712,0.002163767,8.11E-06,3.83E-26,1.91E-05,1.03E-159,6.38E-45,4.73E-35,2.72E-05,2.73E-05,9.42E-10,1.77804E-07,3.57E-130,1.46E-45,1.28E-28,2.74793E-05,1.69E-06,5.42E-13,2.13E-09,1.25E-156,5.33E-49,1.17E-37,1.69E-06
80.31658,99.76964,100.389,99.68023,-0.000595148,0.001215425,5.41215E-05,1.68E-05,1.33E-24,3.14069E-05,5.66E-153,4.00E-43,1.05E-33,4.82298E-05,5.25E-05,3.26E-09,3.69042E-07,8.79E-125,9.14E-44,1.53E-27,5.28398E-05,3.67E-06,2.56E-12,5.18E-09,1.22E-150,3.34E-47,2.61E-36,3.68E-06
92.73047,99.76281,100.3695,99.66455,0.000228478,-0.00176305,0.00104912,3.49E-05,4.62E-23,5.16017E-05,3.11E-146,2.51E-41,2.35E-32,8.65179E-05,1.01E-04,1.13E-08,7.65967E-07,2.16E-119,5.73E-42,1.83E-26,0.000101605,7.98E-06,1.21E-11,1.26E-08,1.19E-144,2.10E-45,5.81E-35,7.99E-06
105.144,99.76518,100.389,99.64816,-0.000222776,0.000423269,0.003055153,7.25E-05,1.60E-21,8.47805E-05,1.70E-139,1.57E-39,5.23E-31,0.000157248,1.94E-04,3.90E-08,1.58981E-06,5.33E-114,3.59E-40,2.19E-25,0.000195364,1.73E-05,5.69E-11,3.05E-08,1.17E-138,1.31E-43,1.29E-33,1.74E-05
117.558,99.76578,100.354,99.63159,-0.000138406,0.004778732,0.000932237,0.000150394,5.56E-20,0.000139289,9.34E-133,9.85E-38,1.17E-29,0.000289683,3.72E-04,1.35E-07,3.29972E-06,1.31E-108,2.25E-38,2.62E-24,0.00037559,3.76E-05,2.69E-10,7.40E-08,1.14E-132,8.23E-42,2.88E-32,3.77E-05
129.972,99.7539,100.312,99.62696,-0.000217205,0.003842911,0.002610048,0.000312086,1.93E-18,0.000228831,5.12E-126,6.17E-36,2.60E-28,0.000540917,0.000714538,4.67E-07,6.84872E-06,3.23E-103,1.41E-36,3.14E-23,0.000721854,8.18E-05,1.27E-09,1.7961E-07,1.12E-126,5.16E-40,6.42E-31,8.19486E-05
142.386,99.73312,100.245,99.60785,0.000620341,0.006508556,0.00147013,0.00064747,6.69E-17,0.000375906,2.81E-119,3.87E-34,5.78E-27,0.001023376,0.001370598,1.62E-06,1.42147E-05,7.95E-98,8.84E-35,3.76E-22,0.001386431,0.000177573,5.99E-09,4.35936E-07,1.09E-120,3.23E-38,1.43E-29,0.000178015
154.8,99.71561,100.197,99.57333,0.000516352,0.002422215,0.002503574,0.001342646,2.32E-15,0.000617432,1.54E-112,2.42E-32,1.29E-25,0.001960078,0.002624222,5.60E-06,2.95027E-05,1.96E-92,5.54E-33,4.50E-21,0.002659323,0.000385465,2.82E-08,1.05807E-06,1.07E-114,2.03E-36,3.18E-28,0.000386551
167.214,99.66158,100.137,99.55247,0.005523217,0.003598095,0.004124482,0.00278152,8.06E-14,0.001013929,8.45E-106,1.52E-30,2.87E-24,0.003795449,0.005006955,1.94E-05,6.12314E-05,4.82E-87,3.47E-31,5.39E-20,0.005087556,0.00083596,1.33E-07,2.56806E-06,1.04E-108,1.27E-34,7.09E-27,0.000838662
179.628,99.58647,100.0323,99.49552,0.01017869,0.0113284,0.002308992,0.005750858,2.80E-12,0.001664472,4.63E-99,9.52E-29,6.39E-23,0.00741533,0.009490107,6.70E-05,0.000127076,1.19E-81,2.18E-29,6.46E-19,0.009684208,0.001809283,6.29E-07,6.23295E-06,1.02E-102,7.96E-33,1.58E-25,0.001816145
192.042,99.44807,99.8674,99.44059,0.0147927,0.0197637,0.005954038,0.0118411,9.70966E-11,0.002730864,2.54E-92,5.97E-27,1.42E-21,0.014572,0.0177658,2.32E-04,0.000263695,2.92E-76,1.36E-27,7.73E-18,0.0182613,0.003898795,2.97E-06,1.51279E-05,9.98E-97,4.99E-31,3.52E-24,0.003916893
204.456,99.16909,99.52576,99.35355,0.0302538,0.03221696,0.0101014,0.0241769,3.36955E-09,0.004476332,1.39E-85,3.74E-25,3.17E-20,0.0286533,0.0325116,8.02E-04,0.000547063,7.19E-71,8.55E-26,9.26E-17,0.0338604,0.008323532,1.40E-05,3.67157E-05,9.76E-91,3.13E-29,7.84E-23,0.008374264
216.869,98.65147,98.95977,99.18814,0.0560708,0.0586464,0.017182,0.0485394,1.16934E-07,0.007326348,7.64E-79,2.34E-23,7.07E-19,0.0558658,0.0571644,0.002765843,0.001134383,1.77E-65,5.36E-24,1.11E-15,0.0610646,0.0174271,6.61448E-05,8.91042E-05,9.55E-85,1.96E-27,1.75E-21,0.0175823
229.283,97.67937,97.97112,98.88424,0.107902,0.103094,0.0358748,0.0943054,4.05794E-06,0.0119614,4.19E-72,1.47E-21,1.57E-17,0.106271,0.09404568,0.009472565,0.002349853,4.36E-60,3.36E-22,1.33E-14,0.105868,0.0350898,0.000312049,0.000216213,9.34E-79,1.23E-25,3.89E-20,0.035618
241.697,95.84191,96.25956,98.27406,0.194451,0.178335,0.0639693,0.171993,0.000140802,0.0194511,2.30E-65,9.21E-20,3.51E-16,0.191585,0.139508,0.0316527,0.004857449,1.07E-54,2.10E-20,1.59E-13,0.176018,0.0657286,0.001469823,0.000524459,9.13E-73,7.70E-24,8.66E-19,0.0677229
254.111,92.79493,93.39098,97.14847,0.306903,0.300483,0.118104,0.269743,0.004861587,0.0314279,1.26E-58,5.77E-18,7.81E-15,0.306033,0.17679,0.09789244,0.009997665,2.64E-49,1.32E-18,1.90E-12,0.28468,0.109545,0.006872287,0.001271061,8.93E-67,4.82E-22,1.93E-17,0.117688
266.525,88.34081,88.8883,95.29675,0.401952,0.445838,0.190459,0.229258,0.143555,0.0502649,6.91E-52,3.62E-16,1.74E-13,0.423078,0.173848,0.247674,0.020397,6.51E-44,8.27E-17,2.28E-11,0.441919,0.155797,0.0310656,0.003074086,8.73E-61,3.02E-20,4.30E-16,0.189937
278.9389,80.19905,82.53713,92.3953,0.932137,0.589329,0.318656,0.0489173,0.806747,0.07913149,3.79E-45,2.27E-14,3.87E-12,0.934796,0.115889,0.443988,0.0408882,1.60E-38,5.18E-15,2.73E-10,0.600765,0.182304,0.122255,0.007397555,8.54E-55,1.90E-18,9.58E-15,0.311957
291.353,67.73102,74.40378,87.20555,0.996026,0.7164,0.511104,0.005192919,8.90E-01,0.121652,2.08E-38,1.42E-12,8.63E-11,1.01644,0.0512778,0.575101,0.0792449,3.94E-33,3.25E-13,3.27E-09,0.705623,0.160838,0.323241,0.0175906,8.35E-49,1.19E-16,2.13E-13,0.501669
303.767,59.58248,65.64341,80.1347,0.224171,0.593222,0.621693,0.000475493,3.90E-02,0.18077,1.14E-31,8.91E-11,1.92E-09,0.2202794,0.0175837,3.72E-01,0.144599,9.71E-28,2.03E-11,3.91E-08,0.53429,0.0908223,0.493039,0.0406917,8.17E-43,7.44E-15,4.75E-12,0.624553
316.181,56.30173,61.80321,72.21186,0.274911,0.244515,0.629607,4.15013E-05,8.21E-05,0.256692,6.25E-25,5.58E-09,4.28E-08,0.256816,0.005413234,1.88E-03,0.239936,2.39E-22,1.28E-09,4.69E-07,0.247228,0.0326498,0.516131,0.0886674,7.99E-37,4.67E-13,1.06E-10,0.637448
328.594,52.73813,58.18191,65.08531,0.318138,0.34716,0.484545,3.54E-06,1.65474E-07,0.344837,3.43E-18,3.49843E-07,9.53927E-07,0.344842,0.001602412,3.83E-06,0.351638,5.88E-17,7.99E-08,5.61E-06,0.35325,0.009234429,2.85E-01,0.172425,7.81E-31,2.92E-11,2.36E-09,0.466768
341.008,48.17485,53.33835,60.47691,0.422162,0.447179,0.30011,2.99E-07,3.33495E-10,0.43516,1.87451E-11,2.18864E-05,2.12472E-05,0.435203,4.68E-04,7.73E-09,0.453305,1.44E-11,5.01E-06,6.72E-05,0.453845,0.002405622,4.39E-02,0.282283,7.64E-25,1.83E-09,5.25E-08,0.328548
353.422,42.88339,47.31972,56.24422,0.232818,0.509014,0.386563,2.51E-08,6.72039E-13,2.31E-01,9.80961E-05,0.001332625,0.000472431,0.232902,1.36E-04,1.56E-11,0.498193,3.44172E-06,0.000312647,0.000802438,0.499447,0.000611811,3.94E-03,0.382483,7.47E-19,1.15E-07,1.17E-06,0.387037
365.836,41.57383,44.38841,51.04666,0.115809,0.121591,0.444388,2.10E-09,1.45328E-15,6.84E-04,0.0619917,0.04329921,0.0101167,0.116091,3.93E-05,3.14124E-14,4.23E-03,0.0841549,0.0164006,0.009305281,0.114132,1.55E-04,3.31E-04,0.440827,7.30E-13,7.20E-06,2.61E-05,0.441346
378.25,39.88277,42.64512,45.79547,0.156283,0.165832,0.36394,1.76E-10,0,1.08E-06,0.008537188,0.03509793,0.117546,0.161182,1.14E-05,0,1.90E-06,0.022555,0.0606389,0.08081126,0.164018,3.89E-05,2.77E-05,0.34691,7.0383E-07,0.000449292,0.000578977,0.348006
390.664,38.7054,40.83228,43.04504,0.004559798,0.020414,0.151377,1.47E-11,0,1.66136E-09,6.00E-04,0.003862456,0.00199455,0.006456559,3.29E-06,0,8.27E-10,2.21E-03,0.005919108,0.0150921,0.02322443,9.81E-06,2.31E-06,5.13E-02,0.0710181,0.0221788,0.0122129,0.156682
403.078,38.61401,40.7063,41.00362,0.007371355,0.0114545,0.174325,1.23E-12,0,2.50062E-12,3.93E-05,0.0003305,5.35E-07,0.000370286,9.50E-07,0,3.57006E-13,1.87E-04,0.000278288,6.11677E-07,0.000467108,2.47E-06,1.93E-07,2.59E-03,0.0128892,0.0374768,0.120214,0.17317
415.492,38.51838,40.54391,39.88293,0.007262166,0.0131669,0.005009801,1.02E-13,0,3.64982E-15,2.56E-06,2.77E-05,1.37E-10,3.02E-05,2.75E-07,0,1.37037E-16,1.57E-05,1.25191E-05,2.00E-11,2.84511E-05,6.22E-07,1.61E-08,1.17E-04,6.52E-04,0.000949217,0.001431421,0.003150168
427.906,38.41303,40.39009,39.77048,0.007897591,0.0144787,0.005817737,8.55E-15,0,0,1.67E-07,2.31E-06,3.47E-14,2.48E-06,7.94E-08,0,0,1.31E-06,5.62E-07,6.59E-16,1.95E-06,1.57E-07,1.35E-09,5.28E-06,2.94E-05,1.52802E-05,3.78862E-07,5.05145E-05
440.32,38.27859,40.2044,39.67076,0.009482423,0.0147024,0.007733505,6.84E-16,0,0,1.08E-08,1.93E-07,0,2.04E-07,2.29E-08,0,0,1.09E-07,2.52E-08,0.00E+00,1.57E-07,3.94E-08,1.12436E-10,2.37E-07,1.32E-06,2.44E-07,9.66E-11,1.84E-06
452.733,38.18025,40.02008,39.58673,0.008194255,0.0180868,0.008615265,0.00E+00,0,0,7.07E-10,1.61E-08,0,1.68E-08,6.63E-09,0,0,9.12E-09,1.13E-09,0,1.69E-08,9.92E-09,9.38965E-12,1.06578E-08,5.93E-08,3.89E-09,2.46E-14,8.38E-08
465.147,38.07308,39.82269,39.47884,0.00713864,0.0148589,0.00828156,0.00E+00,0,0,4.60E-11,1.35E-09,0,1.39E-09,1.92E-09,0,0,7.62E-10,5.09E-11,0,2.73E-09,2.50E-09,7.84177E-13,4.78537E-10,2.66E-09,6.21E-11,0.00E+00,5.70E-09
477.561,37.97245,39.65903,39.37613,0.008299206,0.0108377,0.009431802,0.00E+00,0,0,3.00E-12,1.12E-10,0,1.15E-10,5.53E-10,0,0,6.36E-11,2.28E-12,0,6.19E-10,6.29E-10,6.54232E-14,2.14843E-11,1.20E-10,9.90E-13,0,7.71E-10
489.975,37.88399,39.49144,39.25676,0.00428611,0.01216527,0.0114165,0.00E+00,0,0,1.95E-13,9.38E-12,0,9.58E-12,1.60E-10,0,0,5.31E-12,1.03E-13,0,1.65E-10,1.58E-10,5.40901E-15,9.6447E-13,5.37E-12,1.58E-14,0,1.65E-10
497.614,37.82146,39.41721,39.18523,-0.0760056,-0.0792124,-0.0787462,0.00E+00,0,0,3.64E-14,2.04E-12,0,2.07E-12,7.45E-11,0,0,1.15E-12,1.52E-14,0,7.57E-11,6.77E-11,1.15907E-15,1.42798E-13,7.95E-13,1.23E-15,0,6.87E-11