File: DSC/Dy_DSK.csv
#EXPORTTYPE:                 ;DATA COMPARE                                           ;DATA COMPARE                                                  ;DATA COMPARE
#FILE:                       ;11.05.23_ Dy_1.5+3_3kmin_30+500_N2-120.ngb-ds5         ;10.05.23_ Dy_1.5+3_10kmin_30+500_N2-120.ngb-ds5               ;04.05.23_Dy_1,5+3_5kmin_30+1000_N2-120.ngb-ds5
#FORMAT:                     ;NETZSCH5                                               ;NETZSCH5                                                      ;NETZSCH5
#FTYPE:                      ;ANSI                                                   ;ANSI                                                          ;ANSI
#IDENTITY:                   ;Dy_1,5+3                                               ;Dy 1.5+3                                                      ;Dy_1,5+3
#DECIMAL:                    ;COMMA                                                  ;COMMA                                                         ;COMMA
#SEPARATOR:                  ;SEMICOLON                                              ;SEMICOLON                                                     ;SEMICOLON
#MTYPE:                      ;DSC                                                    ;DSC                                                           ;DSC
#INSTRUMENT:                 ;NETZSCH STA 449F5                                      ;NETZSCH STA 449F5                                             ;NETZSCH STA 449F5
#PROJECT:                    ;                                                       ;                                                              ;
#DATE/TIME:                  ;11.05.2023 15:56:06 (UTC+3)                            ;10.05.2023 16:39:14 (UTC+3)                                   ;04.05.2023 11:29:49 (UTC+3)
#CORR. FILE:                 ;11.05.23_correction for composite-3kmin_30-500Ñ.ngb-bs5;29.04.22_correction for composite-10kmin_30+500_N2-120.ngb-bs5;18.04.23_correction for composite-5kmin_30-1000Ñ.ngb-bs5
#TEMPCAL:                    ;3kmin-N2_washer+Al2O3+cover.ngb-ts5                    ;10kmin-N2_washer+Al2O3+cover.ngb-ts5                          ;5kmin-N2_washer+Al2O3+cover.ngb-ts5
#SENSITIVITY:                ;3kmin-N2_washer+Al2O3+cover.ngb-es5                    ;10kmin-N2_washer+Al2O3+cover.ngb-ts5.ngb-es5                  ;5kmin-N2_washer+Al2O3+cover.ngb-es5
#LABORATORY:                 ;                                                       ;                                                              ;
#OPERATOR:                   ;                                                       ;                                                              ;
#REMARK:                     ;                                                       ;                                                              ;
#SAMPLE:                     ;1                                                      ;1                                                             ;1
#SAMPLE MASS /mg:            ;29,0031                                                ;23,9261                                                       ;25,0075
#MATERIAL:                   ;                                                       ;                                                              ;
#REFERENCE:                  ;                                                       ;                                                              ;
#REFERENCE MASS /mg:         ;0                                                      ;0                                                             ;0
#TYPE OF CRUCIBLE:           ;DSC/TG pan Al2O3                                       ;DSC/TG pan Al2O3                                              ;DSC/TG pan Al2O3
#SAMPLE CRUCIBLE MASS /mg:   ;0                                                      ;0                                                             ;0
#REFERENCE CRUCIBLE MASS /mg:;0                                                      ;0                                                             ;0
#DSC RANGE /µV:              ;5000                                                   ;5000                                                          ;5000
#TG RANGE /mg:               ;35000                                                  ;35000                                                         ;35000
#TAU-R:                      ;---                                                    ;---                                                           ;---
#CORR. CODE:                 ;020                                                    ;020                                                           ;020
#EXO:                        ;+1                                                     ;+1                                                            ;+1
#RANGE:                      ;30°C/3,0(K/min)/500°C                                  ;30°C/10,0(K/min)/500°C                                        ;30°C/5,0(K/min)/1000°C
#SEGMENT:                    ;S1/1                                                   ;S1/1                                                          ;S1/1
#SEG. 1:                     ;30°C/3,0(K/min)/500°C                                  ;30°C/10,0(K/min)/500°C                                        ;30°C/5,0(K/min)/1000°C

##Temp./°C;DSC/(mW/mg);DSC/(mW/mg);DSC/(mW/mg)
 30,67700; 1,864563e-003;-1,119266e-003; 1,937029e-003
 36,40649;-1,829794e-002;-4,272503e-002; 8,043397e-003
 42,13598;-2,665800e-002;-6,829838e-002; 9,874575e-003
 47,86547;-2,959240e-002;-8,502477e-002; 1,180475e-002
 53,59496;-2,995719e-002;-9,607276e-002; 1,480127e-002
 59,32445;-2,840418e-002;      -0,10263; 1,885637e-002
 65,05394;-2,510018e-002;      -0,10584; 2,315556e-002
 70,78343;-2,083159e-002;      -0,10608; 2,878984e-002
 76,51292;-1,595736e-002;      -0,10355; 3,480161e-002
 82,24241;-1,013623e-002;-9,929843e-002; 4,175834e-002
 87,97190;-4,296394e-003;-9,277124e-002; 4,867375e-002
 93,70139; 2,064811e-003;-8,509733e-002; 5,588818e-002
 99,43088; 8,734382e-003;-7,437199e-002; 6,317272e-002
105,16037; 1,575689e-002;-6,278774e-002; 7,019310e-002
110,88986; 2,286062e-002;-4,988773e-002; 7,817622e-002
116,61935; 2,995510e-002;-3,637515e-002; 8,582613e-002
122,34884; 3,768302e-002;-2,117896e-002; 9,388369e-002
128,07833; 4,414813e-002;-6,094926e-003;       0,10155
133,80782; 5,174107e-002; 9,897809e-003;       0,10905
139,53731; 5,995217e-002; 2,518339e-002;       0,11541
145,26680; 6,940899e-002; 3,909509e-002;       0,12289
150,99629; 7,748106e-002; 5,187230e-002;       0,13281
156,72578; 8,377592e-002; 6,776702e-002;       0,14253
162,45527; 9,027210e-002; 8,736896e-002;       0,14934
168,18476; 9,441621e-002;       0,10444;       0,15459
173,91425; 9,308269e-002;       0,11747;       0,15758
179,64374; 8,567187e-002;       0,12760;       0,15386
185,37323; 6,617616e-002;       0,13241;       0,14038
191,10272;      -0,34687;      -0,36306;      -0,31900
196,83221; 8,031454e-003;      -0,49900;-3,715162e-002
202,56170; 2,667462e-003;      -0,14250; 6,113971e-002
208,29119;-5,082344e-002;-1,533307e-002; 1,762025e-002
214,02068;      -0,11357;-2,605075e-002;-5,510047e-002
219,75017;      -0,17882;      -0,11065;      -0,13768
225,47966;      -0,23192;      -0,23841;      -0,21935
231,20915;      -0,25273;      -0,38847;      -0,28930
236,93864;      -0,25875;      -0,54655;      -0,32424
242,66813;      -0,24007;      -0,69541;      -0,36469
248,39762;      -0,24448;      -0,81193;      -0,41507
254,12711;      -0,29213;      -0,86765;      -0,45199
259,85660;      -0,35210;      -0,92282;      -0,52052
265,58609;      -0,35933;      -0,92928;      -0,55873
271,31558;      -0,11228;      -0,94527;      -0,51011
277,04507;       0,18692;      -1,02497;      -0,37836
282,77456;       0,15260;      -1,10608;       0,16850
288,50405;       0,10668;      -1,11772;       0,24223
294,23354; 5,275046e-002;      -1,04770;       0,18346
299,96303;-5,291856e-003;      -0,81017;       0,11399
305,69252;-7,032505e-002;      -0,33341; 5,110360e-002
311,42201;      -0,13826;-3,708716e-002;-2,392606e-002
317,15150;      -0,20901;-8,544421e-002;      -0,10557
322,88099;      -0,28286;      -0,21880;      -0,18897
328,61048;      -0,31568;      -0,37902;      -0,27288
334,33997;      -0,14250;      -0,54854;      -0,35463
340,06946;       0,35326;      -0,71728;      -0,38491
345,79895;       0,35437;      -0,87845;      -0,26110
351,52844;       0,33411;      -1,01482;       0,43557
357,25793;       0,30064;      -1,08343;       0,52349
362,98742;       0,25035;      -1,04140;       0,50313
368,71691;       0,19328;      -0,80090;       0,46887
374,44640;       0,13886; 3,672374e-003;       0,41898
380,17589; 7,957501e-002;       0,34696;       0,35466
385,90538; 1,007837e-002;       0,34733;       0,27495
391,63487;       0,15108;       0,24101;       0,19404
397,36436;       0,19817; 9,808718e-002;       0,10451
403,09385;       0,20694;-5,707166e-002; 3,932950e-003
408,82334;       0,21552;      -0,22139;       0,20845
414,55283;       0,22374;      -0,39923;       0,30030
420,28232;       0,23234;      -0,51474;       0,31308
426,01181;       0,24043;-9,624550e-002;       0,32217
431,74130;       0,24926; 4,073611e-002;       0,32907
437,47079;       0,25729; 7,648330e-002;       0,33636
443,20028;       0,26507; 8,678928e-002;       0,34421
448,92977;       0,27349; 9,077644e-002;       0,35125
454,65926;       0,28161; 9,283422e-002;       0,35950
460,38875;       0,28960; 9,372772e-002;       0,36643
466,11824;       0,29868; 9,506493e-002;       0,37217
471,84773;       0,30536; 9,525676e-002;       0,38000
477,57722;       0,31350; 9,621130e-002;       0,38554
483,30671;       0,32099; 9,673062e-002;       0,39301
489,03620;       0,32717; 9,650303e-002;       0,39998
494,76569;       0,33454; 9,659702e-002;       0,40581
500,49518;       0,33889; 9,625130e-002;       0,41104
506,22467;              ;              ;       0,41746
511,95416;              ;              ;       0,42375
517,68365;              ;              ;       0,42739
523,41314;              ;              ;       0,42981
529,14263;              ;              ;       0,43277
534,87212;              ;              ;       0,43294
540,60161;              ;              ;       0,43616
546,33110;              ;              ;       0,43756
552,06059;              ;              ;       0,43878
557,79008;              ;              ;       0,44074
563,51957;              ;              ;       0,44033
569,24906;              ;              ;       0,44013
574,97855;              ;              ;       0,43804
580,70804;              ;              ;       0,43561
586,43753;              ;              ;       0,43420
592,16702;              ;              ;       0,43423
597,89651;              ;              ;       0,43457
603,62600;              ;              ;       0,43382
609,35549;              ;              ;       0,43372
615,08498;              ;              ;       0,43348
620,81447;              ;              ;       0,43457
626,54396;              ;              ;       0,43453
632,27345;              ;              ;       0,43166
638,00294;              ;              ;       0,40836
643,73243;              ;              ; 4,372131e-002
649,46192;              ;              ;       0,71001
655,19141;              ;              ;       0,78049
660,92090;              ;              ;       0,80253
666,65039;              ;              ;       0,82164
672,37988;              ;              ;       0,84297
678,10937;              ;              ;       0,85358
683,83886;              ;              ;       0,85190
689,56835;              ;              ;       0,91650
695,29784;              ;              ;       0,93375
701,02733;              ;              ;       0,94656
706,75682;              ;              ;       0,96020
712,48631;              ;              ;       0,97673
718,21580;              ;              ;       0,99257
723,94529;              ;              ;       1,01243
729,67478;              ;              ;       1,03229
735,40427;              ;              ;       1,05537
741,13376;              ;              ;       1,07806
746,86325;              ;              ;       1,09980
752,59274;              ;              ;       1,12357
758,32223;              ;              ;       1,14767
764,05172;              ;              ;       1,17424
769,78121;              ;              ;       1,20096
775,51070;              ;              ;       1,22578
781,24019;              ;              ;       1,25215
786,96968;              ;              ;       1,27553
792,69917;              ;              ;       1,30250
798,42866;              ;              ;       1,32715
804,15815;              ;              ;       1,35591
809,88764;              ;              ;       1,37839
815,61713;              ;              ;       1,40315
821,34662;              ;              ;       1,42427
827,07611;              ;              ;       1,44341
832,80560;              ;              ;       1,45346
838,53509;              ;              ;       1,45527
844,26458;              ;              ;       1,46354
849,99407;              ;              ;       1,47766
855,72356;              ;              ;       1,48569
861,45305;              ;              ;       1,49488
867,18254;              ;              ;       1,50546
872,91203;              ;              ;       1,52102
878,64152;              ;              ;       1,53373
884,37101;              ;              ;       1,54546
890,10050;              ;              ;       1,55762
895,82999;              ;              ;       1,56881
901,55948;              ;              ;       1,58074
907,28897;              ;              ;       1,58946
913,01846;              ;              ;       1,60265
918,74795;              ;              ;       1,61013
924,47744;              ;              ;       1,61530
930,20693;              ;              ;       1,62405
935,93642;              ;              ;       1,63286
941,66591;              ;              ;       1,64496
947,39540;              ;              ;       1,65727
953,12489;              ;              ;       1,66778
958,85438;              ;              ;       1,68242
964,58387;              ;              ;       1,69631
970,31336;              ;              ;       1,70778
976,04285;              ;              ;       1,72185
981,77234;              ;              ;       1,73394
987,50183;              ;              ;       1,75143
993,23132;              ;              ;       1,76238
998,00590;              ;              ;       1,77620