File: DSC/Ho_DSK.csv
#EXPORTTYPE:                 ;DATA COMPARE                                           ;DATA COMPARE                                           ;DATA COMPARE
#FILE:                       ;02.06.23_ Ho_1,5+3_3kmin_30+500_N2-120.ngb-ds5         ;02.06.23_ Ho_1,5+3_5kmin_30+500_N2-120.ngb-ds5         ;01.06.23_ Ho_1,5+3_10kmin_30+500_N2-120.ngb-ds5
#FORMAT:                     ;NETZSCH5                                               ;NETZSCH5                                               ;NETZSCH5
#FTYPE:                      ;ANSI                                                   ;ANSI                                                   ;ANSI
#IDENTITY:                   ;Ho_1,5+3                                               ;Ho_1,5+3                                               ;Ho_1,5+3
#DECIMAL:                    ;COMMA                                                  ;COMMA                                                  ;COMMA
#SEPARATOR:                  ;SEMICOLON                                              ;SEMICOLON                                              ;SEMICOLON
#MTYPE:                      ;DSC                                                    ;DSC                                                    ;DSC
#INSTRUMENT:                 ;NETZSCH STA 449F5                                      ;NETZSCH STA 449F5                                      ;NETZSCH STA 449F5
#PROJECT:                    ;                                                       ;                                                       ;
#DATE/TIME:                  ;02.06.2023 15:33:05 (UTC+3)                            ;02.06.2023 11:56:02 (UTC+3)                            ;01.06.2023 16:25:35 (UTC+3)
#CORR. FILE:                 ;11.05.23_correction for composite-3kmin_30-500Ñ.ngb-bs5;10.05.23_correction for composite-5kmin_30-500Ñ.ngb-bs5;29.04.22_correction for composite-10kmin_30+500_N2-120.ngb-bs5
#TEMPCAL:                    ;3kmin-N2_washer+Al2O3+cover.ngb-ts5                    ;5kmin-N2_washer+Al2O3+cover.ngb-ts5                    ;10kmin-N2_washer+Al2O3+cover.ngb-ts5
#SENSITIVITY:                ;3kmin-N2_washer+Al2O3+cover.ngb-es5                    ;5kmin-N2_washer+Al2O3+cover.ngb-es5                    ;10kmin-N2_washer+Al2O3+cover.ngb-ts5.ngb-es5
#LABORATORY:                 ;                                                       ;                                                       ;
#OPERATOR:                   ;                                                       ;                                                       ;
#REMARK:                     ;                                                       ;                                                       ;
#SAMPLE:                     ;1                                                      ;1                                                      ;1
#SAMPLE MASS /mg:            ;19,8500                                                ;24,5625                                                ;17,6635
#MATERIAL:                   ;                                                       ;                                                       ;
#REFERENCE:                  ;                                                       ;                                                       ;
#REFERENCE MASS /mg:         ;0                                                      ;0                                                      ;0
#TYPE OF CRUCIBLE:           ;DSC/TG pan Al2O3                                       ;DSC/TG pan Al2O3                                       ;DSC/TG pan Al2O3
#SAMPLE CRUCIBLE MASS /mg:   ;0                                                      ;0                                                      ;0
#REFERENCE CRUCIBLE MASS /mg:;0                                                      ;0                                                      ;0
#DSC RANGE /µV:              ;5000                                                   ;5000                                                   ;5000
#TG RANGE /mg:               ;35000                                                  ;35000                                                  ;35000
#TAU-R:                      ;---                                                    ;---                                                    ;---
#CORR. CODE:                 ;020                                                    ;020                                                    ;020
#EXO:                        ;+1                                                     ;+1                                                     ;+1
#RANGE:                      ;30°C/3,0(K/min)/500°C                                  ;30°C/5,0(K/min)/500°C                                  ;30°C/10,0(K/min)/500°C
#SEGMENT:                    ;S1/1                                                   ;S1/1                                                   ;S1/1
#SEG. 1:                     ;30°C/3,0(K/min)/500°C                                  ;30°C/5,0(K/min)/500°C                                  ;30°C/10,0(K/min)/500°C

##Temp./°C;DSC/(µV/mg);DSC/(µV/mg);DSC/(µV/mg)
 30,06900;-1,295268e-002;-1,018806e-002;-1,926408e-002
 32,93375;-1,653260e-002;-1,577084e-002;-2,032830e-002
 35,79849;-1,935157e-002;-2,225240e-002;-2,470596e-002
 38,66324;-2,202894e-002;-2,744716e-002;-3,006832e-002
 41,52798;-2,456014e-002;-3,197176e-002;-3,495961e-002
 44,39273;-2,567978e-002;-3,518869e-002;-3,912946e-002
 47,25747;-2,727309e-002;-3,837969e-002;-4,290752e-002
 50,12222;-2,873570e-002;-4,036041e-002;-4,617352e-002
 52,98696;-2,931469e-002;-4,205663e-002;-4,864863e-002
 55,85171;-3,047791e-002;-4,340858e-002;-5,130146e-002
 58,71645;-3,102724e-002;-4,445201e-002;-5,344807e-002
 61,58120;-3,167067e-002;-4,502445e-002;-5,480801e-002
 64,44594;-3,163230e-002;-4,506994e-002;-5,571296e-002
 67,31069;-3,180096e-002;-4,513216e-002;-5,671033e-002
 70,17543;-3,142161e-002;-4,506964e-002;-5,639606e-002
 73,04018;-3,079904e-002;-4,444972e-002;-5,634737e-002
 75,90492;-3,032840e-002;-4,355350e-002;-5,576462e-002
 78,76967;-2,851935e-002;-4,188979e-002;-5,502840e-002
 81,63441;-2,710257e-002;-4,037490e-002;-5,365031e-002
 84,49916;-2,593391e-002;-3,884883e-002;-5,187512e-002
 87,36390;-2,407109e-002;-3,720054e-002;-5,032807e-002
 90,22865;-2,224018e-002;-3,486790e-002;-4,833380e-002
 93,09339;-2,031224e-002;-3,289386e-002;-4,556966e-002
 95,95814;-1,844531e-002;-2,981893e-002;-4,311071e-002
 98,82288;-1,594947e-002;-2,682296e-002;-4,059832e-002
101,68763;-1,356843e-002;-2,360599e-002;-3,710289e-002
104,55237;-1,101357e-002;-2,099864e-002;-3,346533e-002
107,41712;-8,437752e-003;-1,815673e-002;-2,953582e-002
110,28186;-5,546511e-003;-1,507030e-002;-2,627438e-002
113,14661;-3,073171e-003;-1,178912e-002;-2,220503e-002
116,01135;-2,526197e-005;-8,517692e-003;-1,831859e-002
118,87610; 2,902166e-003;-5,054389e-003;-1,436671e-002
121,74084; 6,610489e-003;-1,509150e-003;-9,386793e-003
124,60559; 9,767631e-003; 1,655962e-003;-4,224898e-003
127,47033; 1,319239e-002; 4,785524e-003; 4,457577e-005
130,33508; 1,738129e-002; 8,570540e-003; 4,581531e-003
133,19982; 1,889529e-002; 1,210027e-002; 9,200519e-003
136,06457; 2,130607e-002; 1,540533e-002; 1,437908e-002
138,92931; 2,127470e-002; 1,820155e-002; 1,930893e-002
141,79406; 2,757284e-002; 2,106067e-002; 2,341881e-002
144,65880; 3,113663e-002; 2,370220e-002; 2,742167e-002
147,52355; 3,468300e-002; 2,705680e-002; 3,166312e-002
150,38829; 3,832190e-002; 2,982855e-002; 3,544228e-002
153,25304; 4,145355e-002; 3,367588e-002; 3,891351e-002
156,11778; 4,534254e-002; 3,780243e-002; 4,440185e-002
158,98253; 4,863185e-002; 4,259032e-002; 4,876541e-002
161,84727; 5,258667e-002; 4,426725e-002; 5,412101e-002
164,71202; 5,693791e-002; 4,714133e-002; 5,977964e-002
167,57676; 6,148410e-002; 5,016472e-002; 6,322481e-002
170,44151; 6,597293e-002; 5,298527e-002; 6,703907e-002
173,30625; 6,876143e-002; 5,586640e-002; 7,010758e-002
176,17100; 7,160321e-002; 5,934253e-002; 7,299112e-002
179,03574; 7,417342e-002; 6,274021e-002; 7,658254e-002
181,90049; 7,621916e-002; 6,524654e-002; 8,002598e-002
184,76523; 7,776521e-002; 6,689430e-002; 8,220893e-002
187,62998; 2,907559e-002; 3,324051e-002; 5,626382e-002
190,49472;      -0,10169;      -0,10487;-9,895386e-002
193,35947;-5,848843e-002;      -0,14893;      -0,21963
196,22421; 4,076398e-002;-7,583661e-002;      -0,23384
199,08896; 6,924616e-002; 9,330356e-003;      -0,15848
201,95370; 7,279229e-002; 4,719944e-002;-7,414066e-002
204,81845; 6,761963e-002; 5,857333e-002;-1,873733e-002
207,68319; 5,846105e-002; 5,805641e-002; 1,622611e-002
210,54794; 4,820071e-002; 5,056398e-002; 3,303090e-002
213,41268; 3,627999e-002; 3,847618e-002; 3,779627e-002
216,27743; 2,366283e-002; 2,368254e-002; 3,215729e-002
219,14217; 9,479341e-003; 7,375611e-003; 1,734409e-002
222,00692;-4,998943e-003;-1,102829e-002;-3,903565e-003
224,87166;-1,851843e-002;-3,061403e-002;-3,145313e-002
227,73641;-2,809233e-002;-5,206557e-002;-6,295781e-002
230,60115;-3,684405e-002;-7,336613e-002;-9,880988e-002
233,46590;-4,350892e-002;-9,467363e-002;      -0,13823
236,33064;-4,433733e-002;      -0,11463;      -0,17799
239,19539;-3,925776e-002;      -0,13214;      -0,22031
242,06013;-3,031765e-002;      -0,14582;      -0,26030
244,92488;-2,013966e-002;      -0,15329;      -0,30108
247,78962;-1,264393e-002;      -0,15328;      -0,33972
250,65437;-1,103557e-002;      -0,14546;      -0,37202
253,51911;-1,559065e-002;      -0,14980;      -0,39833
256,38386;-2,670614e-002;      -0,16928;      -0,41495
259,24860;-4,250647e-002;      -0,19422;      -0,42085
262,11335;-6,130515e-002;      -0,22443;      -0,41676
264,97809;-8,253081e-002;      -0,25858;      -0,40489
267,84284;      -0,10650;      -0,29313;      -0,38699
270,70758;      -0,13003;      -0,32782;      -0,37090
273,57233;      -0,15140;      -0,36177;      -0,36092
276,43707;      -0,16570;      -0,39402;      -0,36132
279,30182;      -0,16727;      -0,42036;      -0,37372
282,16656;      -0,14387;      -0,43508;      -0,39710
285,03131;-7,591859e-002;      -0,43311;      -0,42956
287,89605;       0,13251;      -0,41520;      -0,46808
290,76080;       0,20252;      -0,37420;      -0,51245
293,62554;       0,20147;      -0,30839;      -0,56194
296,49029;       0,18960;      -0,18926;      -0,61224
299,35503;       0,17501;-1,347546e-002;      -0,66080
302,21978;       0,16035; 9,028196e-002;      -0,70174
305,08452;       0,14337;       0,12185;      -0,73339
307,94927;       0,12618;       0,12158;      -0,74700
310,81401;       0,10805;       0,10752;      -0,74417
313,67876; 8,864492e-002; 8,975650e-002;      -0,71932
316,54350; 6,726060e-002; 6,914815e-002;      -0,66671
319,40825; 4,423415e-002; 4,711474e-002;      -0,57362
322,27299; 1,941930e-002; 2,385221e-002;      -0,43379
325,13774;-6,101277e-003;-5,687719e-004;      -0,22436
328,00248;-3,094239e-002;-2,658681e-002;      -0,11033
330,86723;-5,213407e-002;-4,879686e-002;-7,505716e-002
333,73197;-6,163151e-002;-8,212608e-002;-8,177842e-002
336,59672;-4,232043e-002;      -0,11299;      -0,11226
339,46146;       0,17477;      -0,14431;      -0,15576
342,32621;       0,27063;      -0,17335;      -0,20847
345,19095;       0,28423;      -0,19724;      -0,26586
348,05570;       0,28339;      -0,21341;      -0,32677
350,92044;       0,28389;      -0,21768;      -0,39009
353,78519;       0,28080;      -0,20043;      -0,45319
356,64993;       0,27500;      -0,14303;      -0,51285
359,51468;       0,26668; 6,107983e-002;      -0,56432
362,37942;       0,25666;       0,16703;      -0,60537
365,24417;       0,24453;       0,19372;      -0,63594
368,10891;       0,23076;       0,19355;      -0,65292
370,97366;       0,21595;       0,18405;      -0,64783
373,83840;       0,20075;       0,17134;      -0,61607
376,70315;       0,18566;       0,15661;      -0,53608
379,56789;       0,17397;       0,13848;      -0,31931
382,43264;       0,23532;       0,11857;      -0,10860
385,29738;       0,26023; 9,717433e-002;-1,381257e-002
388,16213;       0,26882; 7,483666e-002; 2,055593e-002
391,02687;       0,27531; 5,193522e-002; 2,050233e-002
393,89162;       0,28172; 2,796634e-002; 1,233311e-003
396,75636;       0,28716; 5,912550e-003;-3,042059e-002
399,62111;       0,29273; 4,651989e-002;-6,832249e-002
402,48585;       0,29853;       0,10231;      -0,10822
405,35060;       0,30335;       0,12116;      -0,15201
408,21534;       0,30864;       0,12831;      -0,19779
411,08009;       0,31373;       0,13102;      -0,24280
413,94483;       0,31848;       0,13319;      -0,27474
416,80958;       0,32296;       0,13596;      -0,20466
419,67432;       0,32736;       0,13821;      -0,12962
422,53907;       0,33075;       0,14047;-8,997623e-002
425,40381;       0,33581;       0,14232;-6,809063e-002
428,26856;       0,34077;       0,14376;-5,603813e-002
431,13330;       0,34421;       0,14571;-4,814941e-002
433,99805;       0,34856;       0,14761;-4,241984e-002
436,86279;       0,35251;       0,14990;-3,938968e-002
439,72754;       0,35622;       0,15126;-3,831044e-002
442,59228;       0,36291;       0,15251;-3,730065e-002
445,45703;       0,36628;       0,15344;-3,630203e-002
448,32177;       0,36986;       0,15428;-3,585014e-002
451,18652;       0,37271;       0,15628;-3,494200e-002
454,05126;       0,37585;       0,15778;-3,452475e-002
456,91601;       0,37866;       0,15860;-3,317593e-002
459,78075;       0,38162;       0,15928;-3,189227e-002
462,64550;       0,38527;       0,16047;-3,127170e-002
465,51024;       0,38900;       0,16217;-3,049427e-002
468,37499;       0,39297;       0,16378;-3,047383e-002
471,23973;       0,39588;       0,16469;-3,032169e-002
474,10448;       0,39900;       0,16534;-3,075168e-002
476,96922;       0,40154;       0,16609;-3,111200e-002
479,83397;       0,40442;       0,16815;-2,924277e-002
482,69871;       0,40657;       0,17223;-2,888806e-002
485,56346;       0,40834;       0,17279;-2,790284e-002
488,42820;       0,41021;       0,17349;-2,807521e-002
491,29295;       0,41144;       0,17425;-2,730776e-002
494,15769;       0,41445;       0,17520;-2,721945e-002
497,02244;       0,41837;       0,17673;-2,677966e-002
497,97735;       0,41824;       0,17792;-2,677966e-002