File: DSC/NH4_DSC.csv
#EXPORTTYPE:                 ;DATA COMPARE                                           ;DATA COMPARE                                           ;DATA COMPARE
#FILE:                       ;04.07.23_NH4Cl_3kmin_30+500_N2-120.ngb-ds5             ;20.06.23_NH4Cl_5kmin_30+500_N2-120.ngb-ds5             ;04.07.23_NH4Cl_10kmin_30+500_N2-120.ngb-ds5
#FORMAT:                     ;NETZSCH5                                               ;NETZSCH5                                               ;NETZSCH5
#FTYPE:                      ;ANSI                                                   ;ANSI                                                   ;ANSI
#IDENTITY:                   ;NH4Cl                                                  ;NH4Cl                                                  ;NH4Cl
#DECIMAL:                    ;COMMA                                                  ;COMMA                                                  ;COMMA
#SEPARATOR:                  ;SEMICOLON                                              ;SEMICOLON                                              ;SEMICOLON
#MTYPE:                      ;DSC                                                    ;DSC                                                    ;DSC
#INSTRUMENT:                 ;NETZSCH STA 449F5                                      ;NETZSCH STA 449F5                                      ;NETZSCH STA 449F5
#PROJECT:                    ;                                                       ;                                                       ;
#DATE/TIME:                  ;04.07.2023 11:12:23 (UTC+3)                            ;20.06.2023 10:51:28 (UTC+3)                            ;04.07.2023 15:43:12 (UTC+3)
#CORR. FILE:                 ;11.05.23_correction for composite-3kmin_30-500Ñ.ngb-bs5;10.05.23_correction for composite-5kmin_30-500Ñ.ngb-bs5;29.04.22_correction for composite-10kmin_30+500_N2-120.ngb-bs5
#TEMPCAL:                    ;3kmin-N2_washer+Al2O3+cover.ngb-ts5                    ;5kmin-N2_washer+Al2O3+cover.ngb-ts5                    ;10kmin-N2_washer+Al2O3+cover.ngb-ts5
#SENSITIVITY:                ;3kmin-N2_washer+Al2O3+cover.ngb-es5                    ;5kmin-N2_washer+Al2O3+cover.ngb-es5                    ;10kmin-N2_washer+Al2O3+cover.ngb-ts5.ngb-es5
#LABORATORY:                 ;                                                       ;                                                       ;
#OPERATOR:                   ;                                                       ;                                                       ;
#REMARK:                     ;                                                       ;                                                       ;
#SAMPLE:                     ;1                                                      ;1                                                      ;1
#SAMPLE MASS /mg:            ;22,1965                                                ;29,2945                                                ;18,8640
#MATERIAL:                   ;                                                       ;                                                       ;
#REFERENCE:                  ;                                                       ;                                                       ;
#REFERENCE MASS /mg:         ;0                                                      ;0                                                      ;0
#TYPE OF CRUCIBLE:           ;DSC/TG pan Al2O3                                       ;DSC/TG pan Al2O3                                       ;DSC/TG pan Al2O3
#SAMPLE CRUCIBLE MASS /mg:   ;0                                                      ;0                                                      ;0
#REFERENCE CRUCIBLE MASS /mg:;0                                                      ;0                                                      ;0
#DSC RANGE /µV:              ;5000                                                   ;5000                                                   ;5000
#TG RANGE /mg:               ;35000                                                  ;35000                                                  ;35000
#TAU-R:                      ;---                                                    ;---                                                    ;---
#CORR. CODE:                 ;720                                                    ;020                                                    ;020
#EXO:                        ;+1                                                     ;+1                                                     ;+1
#RANGE:                      ;30°C/3,0(K/min)/500°C                                  ;30°C/5,0(K/min)/500°C                                  ;30°C/10,0(K/min)/500°C
#SEGMENT:                    ;S1/1                                                   ;S1/1                                                   ;S1/1
#SEG. 1:                     ;30°C/3,0(K/min)/500°C                                  ;30°C/5,0(K/min)/500°C                                  ;30°C/10,0(K/min)/500°C

##Temp./°C;DSC/(mW/mg);DSC/(mW/mg);DSC/(mW/mg)
 29,85000;-9,901160e-003;-3,967065e-003;-1,449907e-002
 32,71475;-4,146101e-002;-3,434385e-002;-6,060285e-002
 35,57949;-6,022458e-002;-5,831127e-002;      -0,10381
 38,44424;-7,482100e-002;-7,722041e-002;      -0,14096
 41,30898;-8,652844e-002;-9,290193e-002;      -0,17575
 44,17373;-9,575937e-002;      -0,10621;      -0,20744
 47,03847;      -0,10343;      -0,11744;      -0,23604
 49,90322;      -0,11002;      -0,12688;      -0,26347
 52,76796;      -0,11582;      -0,13512;      -0,28881
 55,63271;      -0,12024;      -0,14208;      -0,31249
 58,49745;      -0,12435;      -0,14796;      -0,33526
 61,36220;      -0,12770;      -0,15335;      -0,35607
 64,22694;      -0,13063;      -0,15749;      -0,37612
 67,09169;      -0,13304;      -0,16108;      -0,39440
 69,95643;      -0,13505;      -0,16389;      -0,41199
 72,82118;      -0,13690;      -0,16629;      -0,42842
 75,68592;      -0,13872;      -0,16807;      -0,44347
 78,55067;      -0,14016;      -0,16962;      -0,45774
 81,41541;      -0,14118;      -0,17058;      -0,47149
 84,28016;      -0,14273;      -0,17162;      -0,48434
 87,14490;      -0,14425;      -0,17208;      -0,49664
 90,00965;      -0,14551;      -0,17184;      -0,50857
 92,87439;      -0,14656;      -0,17233;      -0,51901
 95,73914;      -0,14766;      -0,17194;      -0,52977
 98,60388;      -0,14884;      -0,17113;      -0,53926
101,46863;      -0,14990;      -0,16998;      -0,54840
104,33337;      -0,15092;      -0,16904;      -0,55700
107,19812;      -0,15195;      -0,16749;      -0,56583
110,06286;      -0,15334;      -0,16580;      -0,57326
112,92761;      -0,15504;      -0,16416;      -0,58136
115,79235;      -0,15684;      -0,16222;      -0,58888
118,65710;      -0,15831;      -0,16092;      -0,59619
121,52184;      -0,16000;      -0,15846;      -0,60339
124,38659;      -0,16112;      -0,15677;      -0,60955
127,25133;      -0,16334;      -0,15533;      -0,61575
130,11608;      -0,16555;      -0,15351;      -0,62176
132,98082;      -0,16757;      -0,15179;      -0,62700
135,84557;      -0,17025;      -0,14968;      -0,63232
138,71031;      -0,17272;      -0,14822;      -0,63784
141,57506;      -0,17568;      -0,14618;      -0,64203
144,43980;      -0,17811;      -0,14419;      -0,64756
147,30455;      -0,18078;      -0,14230;      -0,65255
150,16929;      -0,18359;      -0,14061;      -0,65645
153,03404;      -0,18752;      -0,13864;      -0,66259
155,89878;      -0,19306;      -0,13719;      -0,66654
158,76353;      -0,19740;      -0,13546;      -0,67060
161,62827;      -0,20094;      -0,13437;      -0,67411
164,49302;      -0,20425;      -0,13247;      -0,67893
167,35776;      -0,20789;      -0,13111;      -0,68257
170,22251;      -0,21164;      -0,13044;      -0,68629
173,08725;      -0,21604;      -0,12973;      -0,68986
175,95200;      -0,22006;      -0,12916;      -0,69425
178,81674;      -0,22399;      -0,12855;      -0,69786
181,68149;      -0,22876;      -0,12779;      -0,70160
184,54623;      -0,23346;      -0,12823;      -0,70656
187,41098;      -0,25145;      -0,13371;      -0,71284
190,27572;      -0,53819;      -0,25989;      -0,74416
193,14047;      -0,63595;      -0,62567;      -1,08070
196,00521;      -0,38169;      -0,56304;      -1,40253
198,86996;      -0,27303;      -0,33694;      -1,43488
201,73470;      -0,24881;      -0,20900;      -1,24098
204,59945;      -0,24752;      -0,15313;      -1,05522
207,46419;      -0,25406;      -0,12963;      -0,93484
210,32894;      -0,26263;      -0,12087;      -0,85792
213,19368;      -0,27249;      -0,11928;      -0,81014
216,05843;      -0,28440;      -0,12197;      -0,78378
218,92317;      -0,29759;      -0,12687;      -0,77090
221,78792;      -0,31208;      -0,13276;      -0,76778
224,65266;      -0,32744;      -0,14047;      -0,77237
227,51741;      -0,34412;      -0,14971;      -0,78270
230,38215;      -0,36210;      -0,16079;      -0,79826
233,24690;      -0,38252;      -0,17183;      -0,81694
236,11164;      -0,40503;      -0,18457;      -0,84003
238,97639;      -0,42869;      -0,19965;      -0,86686
241,84113;      -0,45442;      -0,21650;      -0,89678
244,70588;      -0,48294;      -0,23445;      -0,93005
247,57062;      -0,51477;      -0,25511;      -0,96699
250,43537;      -0,54838;      -0,27753;      -1,00807
253,30011;      -0,58489;      -0,30296;      -1,05283
256,16486;      -0,62542;      -0,33044;      -1,10301
259,02960;      -0,66983;      -0,36072;      -1,15711
261,89435;      -0,71907;      -0,39356;      -1,21636
264,75909;      -0,77015;      -0,42987;      -1,28061
267,62384;      -0,82676;      -0,46981;      -1,35070
270,48858;      -0,88730;      -0,51374;      -1,42612
273,35333;      -0,95378;      -0,56151;      -1,50777
276,21807;      -1,02401;      -0,61386;      -1,59548
279,08282;      -1,09994;      -0,67113;      -1,69155
281,94756;      -1,17975;      -0,73200;      -1,79601
284,81231;      -1,26537;      -0,79571;      -1,90678
287,67705;      -1,35990;      -0,86487;      -2,02586
290,54180;      -1,45985;      -0,94186;      -2,15264
293,40654;      -1,56817;      -1,02092;      -2,28886
296,27129;      -1,68383;      -1,10840;      -2,43600
299,13603;      -1,81449;      -1,20222;      -2,59345
302,00078;      -1,92754;      -1,30322;      -2,76096
304,86552;      -2,05298;      -1,41067;      -2,94092
307,73027;      -2,18304;      -1,52310;      -3,12985
310,59501;      -2,32271;      -1,63962;      -3,32894
313,45976;      -2,44809;      -1,76753;      -3,54565
316,32450;      -2,56468;      -1,94397;      -3,77481
319,18925;      -2,64097;      -2,10215;      -4,02161
322,05399;      -2,70395;      -2,26976;      -4,28671
324,91874;      -2,53898;      -2,45415;      -4,58888
327,78348;      -1,38085;      -2,63921;      -4,88413
330,64823;      -0,81440;      -2,81996;      -5,18814
333,51297;      -0,68237;      -3,01685;      -5,47981
336,37772;      -0,66367;      -3,21935;      -5,83134
339,24246;      -0,66175;      -3,39126;      -6,23560
342,10721;      -0,66843;      -3,54581;      -6,58197
344,97195;      -0,67629;      -3,62665;      -6,88400
347,83670;      -0,68399;      -3,58278;      -7,18794
350,70144;      -0,69220;      -3,24738;      -7,34460
353,56619;      -0,70028;      -2,00575;      -7,28849
356,43093;      -0,70860;      -1,01375;      -6,97672
359,29568;      -0,71666;      -0,61761;      -6,33133
362,16042;      -0,72417;      -0,45605;      -4,60811
365,02517;      -0,73165;      -0,39669;      -3,37507
367,88991;      -0,73919;      -0,37895;      -2,67079
370,75466;      -0,74688;      -0,37578;      -2,24613
373,61940;      -0,75386;      -0,37902;      -1,99096
376,48415;      -0,76126;      -0,38352;      -1,83937
379,34889;      -0,76858;      -0,38886;      -1,75381
382,21364;      -0,77588;      -0,39398;      -1,70740
385,07838;      -0,78339;      -0,39910;      -1,68691
387,94313;      -0,78993;      -0,40490;      -1,68074
390,80787;      -0,79596;      -0,41041;      -1,68388
393,67262;      -0,80062;      -0,41545;      -1,69278
396,53736;      -0,80571;      -0,42076;      -1,70487
399,40211;      -0,81187;      -0,42541;      -1,71796
402,26685;      -0,81757;      -0,43072;      -1,73254
405,13160;      -0,82368;      -0,43706;      -1,74852
407,99634;      -0,82994;      -0,44241;      -1,76385
410,86109;      -0,83526;      -0,44754;      -1,77959
413,72583;      -0,84125;      -0,45252;      -1,79656
416,59058;      -0,84810;      -0,45746;      -1,81295
419,45532;      -0,85392;      -0,46208;      -1,82908
422,32007;      -0,86095;      -0,46731;      -1,84877
425,18481;      -0,86685;      -0,47253;      -1,86604
428,04956;      -0,87268;      -0,47642;      -1,88420
430,91430;      -0,87908;      -0,48130;      -1,90385
433,77905;      -0,88342;      -0,48629;      -1,92609
436,64379;      -0,88961;      -0,49113;      -1,94449
439,50854;      -0,89569;      -0,49531;      -1,96236
442,37328;      -0,90147;      -0,49969;      -1,98116
445,23803;      -0,90682;      -0,50468;      -1,99903
448,10277;      -0,91180;      -0,50862;      -2,01698
450,96752;      -0,91593;      -0,51222;      -2,03419
453,83226;      -0,91946;      -0,51574;      -2,05145
456,69701;      -0,92375;      -0,51978;      -2,06642
459,56175;      -0,92822;      -0,52451;      -2,08090
462,42650;      -0,93236;      -0,52811;      -2,09578
465,29124;      -0,93590;      -0,53132;      -2,10973
468,15599;      -0,93858;      -0,53509;      -2,12400
471,02073;      -0,94198;      -0,53888;      -2,13730
473,88548;      -0,94890;      -0,54249;      -2,15146
476,75022;      -0,95749;      -0,54641;      -2,16466
479,61497;      -0,96334;      -0,54979;      -2,17609
482,47971;      -0,96855;      -0,55333;      -2,18819
485,34446;      -0,97489;      -0,55778;      -2,20052
488,20920;      -0,98186;      -0,56118;      -2,21345
491,07395;      -0,99153;      -0,56536;      -2,22615
493,93869;      -0,99954;      -0,56923;      -2,23877
496,80344;      -1,00657;      -0,57278;      -2,24857
497,75835;      -1,00793;      -0,57381;      -2,24857