File: TGA/Dy_deconvoluted_TGA.csv
temperature,rate_3,rate_10,rate_5,rate_3_diff,rate_3_diff_reaction_0,rate_3_diff_reaction_1,rate_3_diff_reaction_2,rate_3_diff_reaction_3,rate_3_diff_reaction_4,rate_3_diff_reaction_5,rate_3_diff_cumulative,rate_5_diff,rate_5_diff_reaction_0,rate_5_diff_reaction_1,rate_5_diff_reaction_2,rate_5_diff_reaction_3,rate_5_diff_reaction_4,rate_5_diff_reaction_5,rate_5_diff_cumulative,rate_10_diff,rate_10_diff_reaction_0,rate_10_diff_reaction_1,rate_10_diff_reaction_2,rate_10_diff_reaction_3,rate_10_diff_reaction_4,rate_10_diff_reaction_5,rate_10_diff_cumulative
31.63192,99.99894,99.96317,100.076,7.44E-05,1.05721E-07,1.47902E-13,1.78727E-05,2.1641E-193,1.15233E-36,6.82527E-23,1.79785E-05,0.0257306,3.32898E-08,5.13704E-20,2.9996E-05,3.2106E-201,1.95981E-38,1.68647E-27,3.00293E-05,-0.006491155,2.15915E-08,2.84788E-17,3.35956E-06,4.3188E-201,1.7239E-53,3.6474E-34,3.38115E-06
45.95564,99.99343,99.98957,100.052,-0.000959088,3.48782E-07,9.98627E-13,3.13424E-05,1.6673E-184,4.13765E-35,5.28193E-22,3.16912E-05,-0.002663677,1.15676E-07,9.01271E-19,5.00284E-05,2.4736E-192,7.03706E-37,1.83554E-26,5.0144E-05,-0.00097913,7.1232E-08,2.69827E-16,6.10206E-06,7.8163E-193,2.04212E-51,6.3992E-33,6.17329E-06
60.27937,100.012,99.98661,100.042,-0.002087439,1.15066E-06,6.74267E-12,5.49625E-05,1.2845E-175,1.48571E-33,4.08759E-21,5.61131E-05,0.000564782,4.01951E-07,1.58124E-17,8.3437E-05,1.9057E-183,2.5268E-35,1.99779E-25,8.3839E-05,-0.001293436,2.35E-07,2.55653E-15,1.10833E-05,1.4146E-184,2.4191E-49,1.12271E-31,1.13183E-05
74.60309,100.032,99.98603,100.055,0.001608557,3.79608E-06,4.55261E-11,9.63804E-05,9.8964E-167,5.33471E-32,3.1633E-20,0.000100177,0.000225188,1.3967E-06,2.77422E-16,0.00013915,1.4682E-174,9.07295E-34,2.17438E-24,0.000140547,-0.000515182,7.75282E-07,2.42222E-14,2.01306E-05,2.5602E-176,2.86566E-47,1.96975E-30,2.09059E-05
88.92682,100.01,99.97739,100.049,-0.001529535,1.25233E-05,3.0739E-10,0.000169002,7.6246E-158,1.91554E-30,2.44801E-19,0.000181525,0.000617585,4.85322E-06,4.86726E-15,0.000232049,1.1312E-165,3.25783E-32,2.36658E-23,0.000236902,0.001246428,2.5577E-06,2.29498E-13,3.65627E-05,4.6336E-168,3.39467E-45,3.45585E-29,3.91204E-05
103.251,100.017,99.972,100.033,-0.001644607,4.13126E-05,2.07548E-09,0.000296318,5.8742E-149,6.8781E-29,1.89447E-18,0.000337632,0.002377494,1.68633E-05,8.5394E-14,0.000386926,8.7149E-157,1.16978E-30,2.57577E-22,0.00040379,0.002511419,8.43788E-06,2.17442E-12,6.64059E-05,8.3861E-160,4.02132E-43,6.06314E-28,7.48438E-05
117.574,100.018,99.95904,100.034,0.001249799,0.000136262,1.40135E-08,0.000519471,4.5257E-140,2.46972E-27,1.46609E-17,0.000655747,0.000176685,5.85881E-05,1.4982E-12,0.000645055,6.7143E-148,4.20035E-29,2.80345E-21,0.000703643,0.000536405,2.78353E-05,2.06019E-11,0.000120602,1.5178E-151,4.76366E-41,1.06375E-26,0.000148437
131.898,99.98107,99.94187,100.008,0.005337136,0.000449201,9.46183E-08,0.000910448,3.4867E-131,8.86801E-26,1.13458E-16,0.001359743,0.002303718,0.000203477,2.62853E-11,0.001075055,5.1729E-139,1.50822E-27,3.05126E-20,0.001278532,0.001373828,9.18097E-05,1.95196E-10,0.000219007,2.7469E-143,5.64302E-39,1.86631E-25,0.000310817
146.222,99.92484,99.92728,99.9864,0.0030507,0.001478245,6.38857E-07,0.001594986,2.6863E-122,3.18424E-24,8.78027E-16,0.00307387,0.002796105,0.000705771,4.61165E-10,0.001790782,3.9854E-130,5.41555E-26,3.32097E-19,0.002496553,0.002415096,0.000302657,1.84942E-09,0.00039764,4.9714E-135,6.68473E-37,3.27436E-24,0.000700298
160.545,99.8314,99.87211,99.90683,0.009614378,0.004836724,4.31349E-06,0.002792042,2.0696E-113,1.14336E-22,6.79487E-15,0.00763308,0.005875072,0.002437138,8.09094E-09,0.002980468,3.0705E-121,1.94456E-24,3.61452E-18,0.005417614,0.004215636,0.00099598,1.75227E-08,0.000721749,8.9974E-127,7.91871E-35,5.74472E-23,0.001717747
174.869,99.64749,99.80106,99.78184,0.0216142,0.0155316,2.9123E-05,0.004880896,1.5945E-104,4.10547E-21,5.25842E-14,0.0204417,0.0108537,0.00828888,1.41952E-07,0.004953496,2.3656E-112,6.98232E-23,3.93402E-17,0.0132425,0.009706025,0.003258778,1.66022E-07,0.001309299,1.6284E-118,9.38052E-33,1.00789E-21,0.004568243
189.193,99.05285,99.6668,99.45144,0.0631853,0.0470473,0.000196571,0.008512425,1.22846E-95,1.47415E-19,4.06938E-13,0.05575631,0.0369344,0.02682036,2.49048E-06,0.008213381,1.8225E-103,2.50714E-21,4.28175E-16,0.0350362,0.0138333,0.0104663,1.57299E-06,0.002372732,2.9471E-110,1.11121E-30,1.7683E-20,0.0128406
203.517,97.73303,99.37113,98.61413,0.139401,0.121398,0.00132424,0.0147854,9.46455E-87,5.29322E-18,3.14921E-12,0.137508,0.088461,0.0751436,4.36898E-05,0.0135662,1.40415E-94,9.00238E-20,4.66024E-15,0.0887535,0.0377369,0.031748,1.4903E-05,0.004291994,5.3339E-102,1.31635E-28,3.1024E-19,0.0360549
217.84,94.96756,98.49105,96.76612,0.251359,0.223908,0.00880702,0.0255015,7.29176E-78,1.90063E-16,2.43711E-11,0.258216,0.170023,0.15513,0.0007651,0.0222666,1.08179E-85,3.23248E-18,5.07216E-14,0.178162,0.0942612,0.0826227,0.000141147,0.007738021,9.65338E-94,1.55934E-26,5.44303E-18,0.0905019
232.164,90.60993,96.57292,93.54285,0.347532,0.251137,0.0539941,0.0434651,5.61786E-69,6.8246E-15,1.88603E-10,0.348596,0.266807,0.216499,0.01300138,0.0361776,8.33457E-77,1.16069E-16,5.52051E-13,0.265678,0.168283,0.159168,0.001332493,0.0138685,1.74712E-85,1.8472E-24,9.54958E-17,0.174369
246.488,84.9307,93.55554,88.77253,0.450743,0.153783,0.224882,0.0726452,4.32816E-60,2.4505E-13,1.45956E-09,0.45131,0.451331,0.213068,0.147017,0.0578446,6.42119E-68,4.16766E-15,6.00848E-12,0.417929,0.247523,0.211786,0.0122072,0.0245973,3.16198E-77,2.18819E-22,1.67543E-15,0.24859
260.812,77.26695,89.52465,81.22216,0.609905,0.0545764,0.423102,0.117705,3.33458E-51,8.79903E-12,1.12953E-08,0.595383,0.577196,0.138736,0.356384,0.0902522,4.94713E-59,1.49648E-13,6.5396E-11,0.585372,0.330393,0.200635,0.0880539,0.0428465,5.72272E-69,2.59213E-20,2.93948E-14,0.331535
275.135,70.57408,83.94623,73.01438,0.189063,0.0146913,0.006652571,0.182122,2.56905E-42,3.15946E-10,8.74116E-08,0.203466,0.529919,0.0544981,0.338851,0.135902,3.81141E-50,5.37341E-12,7.11765E-10,0.529251,0.452292,0.128953,0.255644,0.0724332,1.03571E-60,3.07063E-18,5.15718E-13,0.45703
289.459,67.2291,77.11504,68.4466,0.265727,0.003619116,4.5166E-08,0.264739,1.97929E-33,1.13447E-08,6.76459E-07,0.268359,0.24295,0.0153466,0.002077185,0.195055,2.93646E-41,1.92943E-10,7.7468E-09,0.212479,0.479751,0.0541276,0.307968,0.116861,1.87449E-52,3.63747E-16,9.04807E-12,0.478957
303.783,62.8393,71.1627,64.74074,0.349417,0.000870863,2.96699E-13,0.357117,1.52481E-24,4.0735E-07,5.23484E-06,0.357993,0.272845,0.003827859,1.62018E-06,0.263931,2.26233E-32,6.92799E-09,8.43156E-08,0.267761,0.288882,0.0172298,0.0973611,0.176445,3.3925E-44,4.30894E-14,1.58744E-10,0.291036
318.106,57.22518,67.64761,60.419,0.439362,0.000208321,0,0.445824,1.17352E-15,1.46235E-05,4.0503E-05,0.446088,0.333218,0.000923776,1.25665E-09,0.334815,1.74298E-23,2.48762E-07,9.1768E-07,0.33574,0.256842,0.004912802,0.002299701,0.245306,6.13991E-36,5.10438E-12,2.78511E-09,0.252519
332.43,50.37344,63.53758,55.21202,0.398587,4.97596E-05,0,0.408533,8.87406E-07,0.000521164,0.000312942,0.409418,0.401192,0.00022112,9.74654E-13,0.399071,1.34269E-14,8.93102E-06,9.98728E-06,0.399311,0.313509,0.001353893,3.86763E-05,0.312438,1.11122E-27,6.04663E-10,4.88635E-08,0.313831
346.754,49.05141,58.61133,49.55302,0.0544243,1.18812E-05,0,1.43387E-05,0.03332603,0.0147925,0.00239212,0.0505369,0.221204,5.28236E-05,7.79377E-16,0.246767,1.02982E-05,0.000319103,0.000108622,0.247258,0.381057,0.000369533,6.45893E-07,0.367861,2.01113E-19,7.16284E-08,8.57284E-07,0.368232
361.078,48.10098,52.95805,48.78096,0.0772744,2.83663E-06,0,1.03443E-10,0.006298765,0.0589917,0.0169088,0.0822021,0.04706877,1.26131E-05,0,9.69289E-06,0.0328616,0.009753194,0.001172901,0.04381002,0.387827,0.000100593,1.07849E-08,0.403027,3.63892E-11,8.484E-06,1.50389E-05,0.403152
375.401,46.76233,49.40958,47.95108,0.112943,6.77228E-07,0,7.01818E-16,0.000413609,0.0300407,0.07834289,0.108798,0.0732387,3.01139E-06,0,1.67452E-10,0.005745064,0.0532956,0.01175624,0.0707999,0.0322519,2.73632E-05,1.80082E-10,0.0272831,0.005806677,0.000990184,0.000263305,0.0343706
389.725,44.94382,48.50418,46.73625,0.0740206,1.61683E-07,0,0,2.37809E-05,0.002889958,0.0663107,0.0692246,0.101253,7.18951E-07,0,2.83648E-15,0.000187566,0.03324785,0.0687657,0.102202,0.0797541,7.44183E-06,3.0069E-12,2.33974E-05,0.0323194,0.0427116,0.00445775,0.0795196
404.049,44.85279,47.19613,45.0592,0.003911197,3.86005E-08,0,0,1.35613E-06,0.000171407,3.00608E-07,0.000173103,0.118146,1.71644E-07,0,0,5.24886E-06,0.003691508,0.114183,0.11788,0.102883,2.02381E-06,5.01932E-14,1.85166E-08,0.00142813,0.0586486,0.0484389,0.108518
418.372,44.80832,45.48561,44.66784,0.00299114,9.21557E-09,0,0,7.72984E-08,9.79246E-06,6.76277E-13,9.87897E-06,0.003855525,4.09786E-08,0,0,1.46199E-07,0.000222342,9.34667E-07,0.000223463,0.126719,5.50367E-07,8.06022E-16,1.45241E-11,2.74158E-05,0.0113189,0.104677,0.116024
432.696,44.75108,45.02656,44.6274,0.004347893,2.20014E-09,0,0,4.40583E-09,5.5822E-07,0,5.64826E-07,0.005145237,9.78331E-09,0,0,4.07162E-09,1.2714E-05,5.66423E-13,1.27278E-05,0.000308441,1.49669E-07,0,1.12881E-14,5.13141E-07,0.000377189,2.60804E-05,0.000403932
447.02,44.71074,45.00278,44.57097,0.002488832,5.25266E-10,0,0,2.51122E-10,3.18175E-08,0,3.25939E-08,0.004208382,2.33569E-09,0,0,1.13394E-10,7.24802E-07,0,7.27251E-07,0.000346615,4.07018E-08,0,0,9.59987E-09,1.05624E-05,3.28243E-10,1.06131E-05
461.344,44.66251,44.98184,44.52776,0.002507697,1.25403E-10,0,0,1.43134E-11,1.81352E-09,0,1.95324E-09,0.003119543,5.57626E-10,0,0,3.15798E-12,4.13124E-08,0,4.18732E-08,0.001294285,1.10686E-08,0,0,1.79593E-10,2.94206E-07,4.10332E-15,3.05455E-07
475.667,44.61489,44.9576,44.49463,0.000917948,2.99389E-11,0,0,8.15827E-13,1.03367E-10,0,1.34121E-10,0.002588279,1.33129E-10,0,0,8.79461E-14,2.35472E-09,0,2.48793E-09,0.001931453,3.01006E-09,0,0,3.35979E-12,8.19362E-09,0,1.1207E-08
489.991,44.57007,44.93208,44.44307,0.002043869,7.14763E-12,0,0,4.65028E-14,5.89165E-12,0,1.30858E-11,0.002190873,3.17834E-11,0,0,2.44693E-15,1.34213E-10,0,1.65999E-10,0.001252473,8.18569E-10,0,0,6.28575E-14,2.2819E-10,0,1.04682E-09
500.495,44.53659,44.91998,44.39879,0.000656142,2.50024E-12,0,0,5.68545E-15,7.2089E-13,0,3.22681E-12,0.00477235,2.50024E-12,0,0,5.68545E-15,7.2089E-13,0,3.22681E-12,-0.000271983,2.50024E-12,0,0,5.68545E-15,7.2089E-13,0,3.22681E-12