File: TGA/Dy_TGA.csv
#EXPORTTYPE:                 ;DATA COMPARE                                           ;DATA COMPARE                                                  ;DATA COMPARE
#FILE:                       ;11.05.23_ Dy_1.5+3_3kmin_30+500_N2-120.ngb-ds5         ;10.05.23_ Dy_1.5+3_10kmin_30+500_N2-120.ngb-ds5               ;04.05.23_Dy_1,5+3_5kmin_30+1000_N2-120.ngb-ds5
#FORMAT:                     ;NETZSCH5                                               ;NETZSCH5                                                      ;NETZSCH5
#FTYPE:                      ;ANSI                                                   ;ANSI                                                          ;ANSI
#IDENTITY:                   ;Dy_1,5+3                                               ;Dy 1.5+3                                                      ;Dy_1,5+3
#DECIMAL:                    ;COMMA                                                  ;COMMA                                                         ;COMMA
#SEPARATOR:                  ;SEMICOLON                                              ;SEMICOLON                                                     ;SEMICOLON
#MTYPE:                      ;TG                                                     ;TG                                                            ;TG
#INSTRUMENT:                 ;NETZSCH STA 449F5                                      ;NETZSCH STA 449F5                                             ;NETZSCH STA 449F5
#PROJECT:                    ;                                                       ;                                                              ;
#DATE/TIME:                  ;11.05.2023 15:56:06 (UTC+3)                            ;10.05.2023 16:39:14 (UTC+3)                                   ;04.05.2023 11:29:49 (UTC+3)
#CORR. FILE:                 ;11.05.23_correction for composite-3kmin_30-500Ñ.ngb-bs5;29.04.22_correction for composite-10kmin_30+500_N2-120.ngb-bs5;18.04.23_correction for composite-5kmin_30-1000Ñ.ngb-bs5
#TEMPCAL:                    ;3kmin-N2_washer+Al2O3+cover.ngb-ts5                    ;10kmin-N2_washer+Al2O3+cover.ngb-ts5                          ;5kmin-N2_washer+Al2O3+cover.ngb-ts5
#SENSITIVITY:                ;3kmin-N2_washer+Al2O3+cover.ngb-es5                    ;10kmin-N2_washer+Al2O3+cover.ngb-ts5.ngb-es5                  ;5kmin-N2_washer+Al2O3+cover.ngb-es5
#LABORATORY:                 ;                                                       ;                                                              ;
#OPERATOR:                   ;                                                       ;                                                              ;
#REMARK:                     ;                                                       ;                                                              ;
#SAMPLE:                     ;1                                                      ;1                                                             ;1
#SAMPLE MASS /mg:            ;29,0031                                                ;23,9261                                                       ;25,0075
#MATERIAL:                   ;                                                       ;                                                              ;
#REFERENCE:                  ;                                                       ;                                                              ;
#REFERENCE MASS /mg:         ;0                                                      ;0                                                             ;0
#TYPE OF CRUCIBLE:           ;DSC/TG pan Al2O3                                       ;DSC/TG pan Al2O3                                              ;DSC/TG pan Al2O3
#SAMPLE CRUCIBLE MASS /mg:   ;0                                                      ;0                                                             ;0
#REFERENCE CRUCIBLE MASS /mg:;0                                                      ;0                                                             ;0
#DSC RANGE /µV:              ;5000                                                   ;5000                                                          ;5000
#TG RANGE /mg:               ;35000                                                  ;35000                                                         ;35000
#TAU-R:                      ;---                                                    ;---                                                           ;---
#CORR. CODE:                 ;020                                                    ;020                                                           ;020
#EXO:                        ;+1                                                     ;+1                                                            ;+1
#RANGE:                      ;30°C/3,0(K/min)/500°C                                  ;30°C/10,0(K/min)/500°C                                        ;30°C/5,0(K/min)/1000°C
#SEGMENT:                    ;S1/1                                                   ;S1/1                                                          ;S1/1
#SEG. 1:                     ;30°C/3,0(K/min)/500°C                                  ;30°C/10,0(K/min)/500°C                                        ;30°C/5,0(K/min)/1000°C

##Temp./°C;Mass/%;Mass/%;Mass/%
 30,67700;100,00000;100,00000;100,00000
 35,45158; 99,99498; 99,97782;100,03084
 40,22615; 99,98793; 99,99171;100,03829
 45,00073; 99,99101; 99,98610;100,03739
 49,77530; 99,99862; 99,99226;100,05814
 54,54988; 99,99778; 99,98497;100,03798
 59,32445;100,01241; 99,98986;100,04201
 64,09903;100,02414; 99,99134;100,04137
 68,87360;100,01758; 99,98540;100,06442
 73,64818;100,03379; 99,98695;100,05998
 78,42275;100,02689; 99,98885;100,05958
 83,19733;100,01208; 99,98791;100,05998
 87,97190;100,00896; 99,97936;100,04759
 92,74648;100,01596; 99,98344;100,04839
 97,52105;100,02090; 99,97785;100,04607
102,29563;100,02207; 99,97367;100,03600
107,07020;100,02445; 99,96197;100,03239
111,84478;100,01828; 99,95654;100,03919
116,61935;100,02069; 99,95828;100,03399
121,39393;100,01550; 99,95194;100,03319
126,16850; 99,99029; 99,95403;100,02279
130,94308; 99,98414; 99,94441;100,01759
135,71765; 99,95828; 99,94065;100,01319
140,49223; 99,93897; 99,92852; 99,99680
145,26680; 99,91932; 99,92769; 99,98851
150,04138; 99,90277; 99,91203; 99,97481
154,81595; 99,88041; 99,89425; 99,93762
159,59053; 99,84540; 99,87672; 99,91323
164,36510; 99,79899; 99,85623; 99,88517
169,13968; 99,73210; 99,82992; 99,85862
173,91425; 99,65814; 99,80775; 99,79911
178,68883; 99,54008; 99,75882; 99,73405
183,46340; 99,35734; 99,72923; 99,62970
188,23798; 99,11760; 99,68268; 99,47681
193,01255; 98,79092; 99,61799; 99,28342
197,78713; 98,40034; 99,53481; 99,03024
202,56170; 97,85366; 99,40589; 98,69852
207,33628; 97,14105; 99,20438; 98,24559
212,11085; 96,25683; 98,91548; 97,65353
216,88543; 95,19536; 98,57245; 96,91995
221,66000; 93,93031; 98,06865; 96,06140
226,43458; 92,44933; 97,47747; 94,98345
231,20915; 90,94670; 96,74122; 93,78792
235,98373; 89,21786; 95,90139; 92,49071
240,75830; 87,35135; 94,89466; 91,04809
245,53288; 85,34384; 93,78533; 89,18958
250,30745; 83,13258; 92,57456; 86,93277
255,08203; 80,62377; 91,29736; 84,46090
259,85660; 77,85766; 89,83558; 81,76299
264,63118; 74,93186; 88,20359; 78,97789
269,40575; 72,14650; 86,38605; 76,18371
274,18033; 70,75891; 84,37368; 73,53827
278,95490; 69,77286; 82,18108; 71,18583
283,72948; 68,67410; 79,88261; 69,79405
288,50405; 67,47906; 77,55720; 68,70399
293,27863; 66,18386; 75,29764; 67,50990
298,05320; 64,73659; 73,16873; 66,26983
302,82778; 63,14560; 71,44361; 65,03439
307,60235; 61,47062; 70,17159; 63,66156
312,37693; 59,62109; 69,07069; 62,24894
317,15150; 57,62970; 67,88921; 60,71751
321,92608; 55,48044; 66,63429; 59,10755
326,70065; 53,13858; 65,28360; 57,40036
331,47523; 50,79593; 63,82905; 55,57323
336,24980; 49,45326; 62,31992; 53,62887
341,02438; 49,29872; 60,68638; 51,64382
345,79895; 49,10356; 58,97022; 49,80629
350,57353; 48,83104; 57,11844; 49,20642
355,34810; 48,52503; 55,22830; 49,02886
360,12268; 48,18077; 53,32004; 48,82089
364,89725; 47,79512; 51,52002; 48,59306
369,67183; 47,36290; 50,03442; 48,33525
374,44640; 46,84658; 49,44319; 48,01638
379,22098; 46,30182; 49,22116; 47,65708
383,99555; 45,70809; 48,91085; 47,26259
388,77013; 45,05182; 48,57361; 46,82038
393,54470; 44,88796; 48,19825; 46,32477
398,31928; 44,86934; 47,76885; 45,77058
403,09385; 44,85315; 47,29820; 45,17367
407,86843; 44,84057; 46,79533; 44,74065
412,64300; 44,82521; 46,18898; 44,69750
417,41758; 44,81176; 45,58876; 44,67900
422,19215; 44,79590; 45,07378; 44,65821
426,96673; 44,77004; 45,02142; 44,64714
431,74130; 44,75177; 45,02297; 44,62901
436,51588; 44,72754; 45,01110; 44,60142
441,29045; 44,71281; 44,99607; 44,60422
446,06503; 44,71832; 45,00316; 44,57583
450,83960; 44,69074; 44,99313; 44,56023
455,61418; 44,68143; 44,98100; 44,55229
460,38875; 44,66488; 44,98396; 44,53024
465,16333; 44,65626; 44,97593; 44,51784
469,93790; 44,63419; 44,96888; 44,50585
474,71248; 44,61489; 44,95802; 44,50105
479,48705; 44,60837; 44,94757; 44,48505
484,26163; 44,58110; 44,94506; 44,46906
489,03620; 44,57041; 44,93372; 44,44313
493,81078; 44,55075; 44,92792; 44,42867
498,58535; 44,53659; 44,91998; 44,40595
503,35993;         ;         ; 44,39468
508,13450;         ;         ; 44,39268
512,90908;         ;         ; 44,37192
517,68365;         ;         ; 44,34949
522,45823;         ;         ; 44,33910
527,23280;         ;         ; 44,32190
532,00738;         ;         ; 44,31589
536,78195;         ;         ; 44,29977
541,55653;         ;         ; 44,27220
546,33110;         ;         ; 44,27908
551,10568;         ;         ; 44,24283
555,88025;         ;         ; 44,24391
560,65483;         ;         ; 44,22518
565,42940;         ;         ; 44,20507
570,20398;         ;         ; 44,19633
574,97855;         ;         ; 44,15721
579,75313;         ;         ; 44,16235
584,52770;         ;         ; 44,15715
589,30228;         ;         ; 44,14011
594,07685;         ;         ; 44,13516
598,85143;         ;         ; 44,10717
603,62600;         ;         ; 44,08477
608,40058;         ;         ; 44,06998
613,17515;         ;         ; 44,05118
617,94973;         ;         ; 44,03719
622,72430;         ;         ; 44,02076
627,49888;         ;         ; 44,01440
632,27345;         ;         ; 43,99657
637,04803;         ;         ; 43,99522
641,82260;         ;         ; 43,96681
646,59718;         ;         ; 43,95835
651,37175;         ;         ; 43,94361
656,14633;         ;         ; 43,92722
660,92090;         ;         ; 43,91296
665,69548;         ;         ; 43,91003
670,47005;         ;         ; 43,89686
675,24463;         ;         ; 43,88523
680,01920;         ;         ; 43,87124
684,79378;         ;         ; 43,84363
689,56835;         ;         ; 43,83645
694,34293;         ;         ; 43,81563
699,11750;         ;         ; 43,80798
703,89208;         ;         ; 43,77462
708,66665;         ;         ; 43,72554
713,44123;         ;         ; 43,68090
718,21580;         ;         ; 43,64166
722,99038;         ;         ; 43,59168
727,76495;         ;         ; 43,54972
732,53953;         ;         ; 43,49100
737,31410;         ;         ; 43,42095
742,08868;         ;         ; 43,37176
746,86325;         ;         ; 43,29707
751,63783;         ;         ; 43,22211
756,41240;         ;         ; 43,15146
761,18698;         ;         ; 43,09185
765,96155;         ;         ; 43,01793
770,73613;         ;         ; 42,94991
775,51070;         ;         ; 42,87991
780,28528;         ;         ; 42,80261
785,05985;         ;         ; 42,71518
789,83443;         ;         ; 42,62845
794,60900;         ;         ; 42,54246
799,38358;         ;         ; 42,45012
804,15815;         ;         ; 42,35397
808,93273;         ;         ; 42,24808
813,70730;         ;         ; 42,15540
818,48188;         ;         ; 42,04777
823,25645;         ;         ; 41,95703
828,03103;         ;         ; 41,89418
832,80560;         ;         ; 41,79855
837,58018;         ;         ; 41,72979
842,35475;         ;         ; 41,68310
847,12933;         ;         ; 41,63674
851,90390;         ;         ; 41,58832
856,67848;         ;         ; 41,53727
861,45305;         ;         ; 41,49955
866,22763;         ;         ; 41,45036
871,00220;         ;         ; 41,39918
875,77678;         ;         ; 41,34632
880,55135;         ;         ; 41,30339
885,32593;         ;         ; 41,23974
890,10050;         ;         ; 41,18526
894,87508;         ;         ; 41,14239
899,64965;         ;         ; 41,06497
904,42423;         ;         ; 41,00929
909,19880;         ;         ; 40,94842
913,97338;         ;         ; 40,88220
918,74795;         ;         ; 40,82495
923,52253;         ;         ; 40,75133
928,29710;         ;         ; 40,67243
933,07168;         ;         ; 40,59941
937,84625;         ;         ; 40,52385
942,62083;         ;         ; 40,46546
947,39540;         ;         ; 40,37888
952,16998;         ;         ; 40,29393
956,94455;         ;         ; 40,21432
961,71913;         ;         ; 40,12360
966,49370;         ;         ; 40,01469
971,26828;         ;         ; 39,92642
976,04285;         ;         ; 39,81524
980,81743;         ;         ; 39,71441
985,59200;         ;         ; 39,60490
990,36658;         ;         ; 39,48999
995,14115;         ;         ; 39,37338
998,00590;         ;         ; 39,28620