File: TGA/Er_TGA.csv
#EXPORTTYPE:                 ;DATA COMPARE                                           ;DATA COMPARE                                           ;DATA COMPARE
#FILE:                       ;08.06.23_ Er_2+4_3kmin_30+500_N2-120.ngb-ds5           ;05.06.23_ Er_2+4_5kmin_30+500_N2-120.ngb-ds5           ;07.06.23_ Er_2+4_10kmin_30+500_N2-120.ngb-ds5
#FORMAT:                     ;NETZSCH5                                               ;NETZSCH5                                               ;NETZSCH5
#FTYPE:                      ;ANSI                                                   ;ANSI                                                   ;ANSI
#IDENTITY:                   ;Er_2+4                                                 ;Er_2+4                                                 ;Er_2+4
#DECIMAL:                    ;COMMA                                                  ;COMMA                                                  ;COMMA
#SEPARATOR:                  ;SEMICOLON                                              ;SEMICOLON                                              ;SEMICOLON
#MTYPE:                      ;TG                                                     ;TG                                                     ;TG
#INSTRUMENT:                 ;NETZSCH STA 449F5                                      ;NETZSCH STA 449F5                                      ;NETZSCH STA 449F5
#PROJECT:                    ;                                                       ;                                                       ;
#DATE/TIME:                  ;08.06.2023 10:38:22 (UTC+3)                            ;05.06.2023 15:35:50 (UTC+3)                            ;07.06.2023 11:37:24 (UTC+3)
#CORR. FILE:                 ;11.05.23_correction for composite-3kmin_30-500Ñ.ngb-bs5;10.05.23_correction for composite-5kmin_30-500Ñ.ngb-bs5;29.04.22_correction for composite-10kmin_30+500_N2-120.ngb-bs5
#TEMPCAL:                    ;3kmin-N2_washer+Al2O3+cover.ngb-ts5                    ;5kmin-N2_washer+Al2O3+cover.ngb-ts5                    ;10kmin-N2_washer+Al2O3+cover.ngb-ts5
#SENSITIVITY:                ;3kmin-N2_washer+Al2O3+cover.ngb-es5                    ;5kmin-N2_washer+Al2O3+cover.ngb-es5                    ;10kmin-N2_washer+Al2O3+cover.ngb-ts5.ngb-es5
#LABORATORY:                 ;                                                       ;                                                       ;
#OPERATOR:                   ;                                                       ;                                                       ;
#REMARK:                     ;                                                       ;                                                       ;
#SAMPLE:                     ;1                                                      ;1                                                      ;1
#SAMPLE MASS /mg:            ;33,686                                                 ;21,38                                                  ;30,5855
#MATERIAL:                   ;                                                       ;                                                       ;
#REFERENCE:                  ;                                                       ;                                                       ;
#REFERENCE MASS /mg:         ;0                                                      ;0                                                      ;0
#TYPE OF CRUCIBLE:           ;DSC/TG pan Al2O3                                       ;DSC/TG pan Al2O3                                       ;DSC/TG pan Al2O3
#SAMPLE CRUCIBLE MASS /mg:   ;0                                                      ;0                                                      ;0
#REFERENCE CRUCIBLE MASS /mg:;0                                                      ;0                                                      ;0
#DSC RANGE /µV:              ;5000                                                   ;5000                                                   ;5000
#TG RANGE /mg:               ;35000                                                  ;35000                                                  ;35000
#TAU-R:                      ;---                                                    ;---                                                    ;---
#CORR. CODE:                 ;020                                                    ;020                                                    ;020
#EXO:                        ;+1                                                     ;+1                                                     ;+1
#RANGE:                      ;30°C/3,0(K/min)/500°C                                  ;30°C/5,0(K/min)/500°C                                  ;30°C/10,0(K/min)/500°C
#SEGMENT:                    ;S1/1                                                   ;S1/1                                                   ;S1/1
#SEG. 1:                     ;30°C/3,0(K/min)/500°C                                  ;30°C/5,0(K/min)/500°C                                  ;30°C/10,0(K/min)/500°C

##Temp./°C;Mass/%;Mass/%;Mass/%
 30,66100;100,00000;100,00000;100,00000
 32,57083; 99,66054;100,39353; 99,62108
 34,48066; 99,67105;100,39527; 99,63218
 36,39049; 99,68566;100,39112; 99,64989
 38,30032; 99,69633;100,40653; 99,64947
 40,21015; 99,69202;100,40833; 99,65572
 42,11998; 99,68860;100,39990; 99,65735
 44,02981; 99,71394;100,40692; 99,65290
 45,93964; 99,71100;100,39825; 99,65686
 47,84947; 99,72071;100,40510; 99,66812
 49,75930; 99,72179;100,41719; 99,66375
 51,66913; 99,71800;100,41587; 99,66847
 53,57896; 99,72387;100,41120; 99,67040
 55,48879; 99,73312;100,41300; 99,65931
 57,39862; 99,73386;100,42002; 99,66621
 59,30845; 99,73609;100,41588; 99,67501
 61,21828; 99,74114;100,40974; 99,66849
 63,12811; 99,75558;100,40787; 99,67901
 65,03794; 99,75362;100,40366; 99,67755
 66,94777; 99,76103;100,40832; 99,67430
 68,85760; 99,76135;100,41395; 99,67006
 70,76743; 99,76073;100,41955; 99,66715
 72,67726; 99,77107;100,40425; 99,66911
 74,58709; 99,77023;100,40318; 99,66657
 76,49692; 99,76489;100,39160; 99,67338
 78,40675; 99,76548;100,38349; 99,67861
 80,31658; 99,76964;100,38868; 99,68023
 82,22641; 99,77467;100,38447; 99,67535
 84,13624; 99,76490;100,38211; 99,67866
 86,04607; 99,76431;100,37604; 99,67666
 87,95590; 99,76429;100,37322; 99,67172
 89,86573; 99,76429;100,37278; 99,66806
 91,77556; 99,76340;100,36852; 99,66422
 93,68539; 99,76192;100,36997; 99,66667
 95,59522; 99,76489;100,37558; 99,66847
 97,50505; 99,76192;100,38400; 99,65407
 99,41488; 99,76480;100,38447; 99,65670
101,32471; 99,76637;100,38026; 99,65710
103,23454; 99,76220;100,38915; 99,65541
105,14437; 99,76518;100,38872; 99,64816
107,05420; 99,76667;100,38962; 99,64656
108,96403; 99,76518;100,37881; 99,63804
110,87386; 99,76578;100,36538; 99,63054
112,78369; 99,76281;100,36293; 99,62891
114,69352; 99,76251;100,35548; 99,63152
116,60335; 99,76471;100,35407; 99,63185
118,51318; 99,76222;100,34501; 99,62988
120,42301; 99,75984;100,33068; 99,62793
122,33284; 99,75865;100,32507; 99,62891
124,24267; 99,75094;100,32181; 99,63572
126,15250; 99,74975;100,31852; 99,64003
128,06233; 99,75390;100,31431; 99,63676
129,97216; 99,75390;100,31151; 99,62696
131,88199; 99,75729;100,30730; 99,62335
133,79182; 99,75059;100,29423; 99,62204
135,70165; 99,74313;100,28625; 99,61133
137,61148; 99,73936;100,28672; 99,60177
139,52131; 99,73609;100,28297; 99,60465
141,43114; 99,73431;100,26848; 99,60766
143,34097; 99,72986;100,24415; 99,60775
145,25080; 99,72716;100,24415; 99,60120
147,16063; 99,73698;100,24254; 99,58902
149,07046; 99,71858;100,24088; 99,58707
150,98029; 99,71383;100,21990; 99,58347
152,89012; 99,71753;100,21281; 99,57953
154,79995; 99,71561;100,19691; 99,57333
156,70978; 99,71198;100,19504; 99,56809
158,61961; 99,70463;100,19317; 99,56614
160,52944; 99,70470;100,18454; 99,56420
162,43927; 99,69101;100,17208; 99,56319
164,34910; 99,68598;100,15514; 99,56089
166,25893; 99,67175;100,14313; 99,55436
168,16876; 99,66039;100,13658; 99,55077
170,07859; 99,65624;100,13330; 99,53730
171,98842; 99,64228;100,12067; 99,52957
173,89825; 99,64139;100,09673; 99,52427
175,80808; 99,62744;100,08276; 99,51223
177,71791; 99,60625;100,05753; 99,50401
179,62774; 99,58647;100,03230; 99,49552
181,53757; 99,56837;100,01379; 99,49650
183,44740; 99,55100; 99,99211; 99,48930
185,35723; 99,52894; 99,96584; 99,48327
187,26706; 99,51104; 99,92843; 99,47393
189,17689; 99,47797; 99,91719; 99,46084
191,08672; 99,45519; 99,87939; 99,44674
192,99655; 99,43139; 99,83258; 99,43610
194,90638; 99,39612; 99,79466; 99,43243
196,81621; 99,36084; 99,75396; 99,41773
198,72604; 99,31948; 99,69873; 99,41119
200,63587; 99,27025; 99,63626; 99,39087
202,54570; 99,22366; 99,58038; 99,37265
204,45553; 99,16909; 99,52576; 99,35355
206,36536; 99,10169; 99,45774; 99,33371
208,27519; 99,04020; 99,39011; 99,31377
210,18502; 98,96813; 99,30851; 99,29150
212,09485; 98,87998; 99,20533; 99,26797
214,00468; 98,79340; 99,11875; 99,23692
215,91451; 98,69946; 99,01359; 99,20331
217,82434; 98,59645; 98,90007; 99,17443
219,73417; 98,48999; 98,77310; 99,14310
221,64400; 98,35200; 98,63939; 99,09795
223,55383; 98,20451; 98,48139; 99,05644
225,46366; 98,04337; 98,32692; 99,01521
227,37349; 97,86049; 98,15707; 98,95644
229,28332; 97,67937; 97,97112; 98,88424
231,19315; 97,46614; 97,78251; 98,81687
233,10298; 97,23317; 97,54716; 98,74527
235,01281; 96,96905; 97,29691; 98,66291
236,92264; 96,68087; 97,03067; 98,55149
238,83247; 96,35406; 96,72889; 98,44179
240,74230; 96,01870; 96,42710; 98,33679
242,65213; 95,65484; 96,07827; 98,21270
244,56196; 95,26132; 95,73071; 98,07441
246,47179; 94,83723; 95,33520; 97,92865
248,38162; 94,38247; 94,92206; 97,75397
250,29145; 93,89050; 94,42589; 97,55834
252,20128; 93,35324; 93,92751; 97,36572
254,11111; 92,79493; 93,39098; 97,14847
256,02094; 92,18876; 92,79316; 96,91301
257,93077; 91,56955; 92,19277; 96,67099
259,84060; 90,89860; 91,52348; 96,40529
261,75043; 90,19724; 90,81026; 96,10832
263,66026; 89,48346; 90,09849; 95,79614
265,57009; 88,72732; 89,29094; 95,46894
267,47992; 87,96182; 88,45645; 95,10817
269,38975; 87,15591; 87,56206; 94,72789
271,29958; 86,15666; 86,63821; 94,31782
273,20941; 84,92021; 85,68155; 93,89399
275,11924; 83,48071; 84,67334; 93,43375
277,02907; 81,90467; 83,63134; 92,94709
278,93890; 80,19905; 82,53713; 92,39530
280,84873; 78,40384; 81,39861; 91,76641
282,75856; 76,53089; 80,20220; 91,05356
284,66839; 74,57669; 78,99112; 90,30687
286,57822; 72,63610; 77,72795; 89,48460
288,48805; 70,66377; 76,41044; 88,61342
290,39788; 68,69533; 75,07565; 87,68296
292,30771; 66,78596; 73,70205; 86,72348
294,21754; 64,94424; 72,35719; 85,71714
296,12737; 63,26913; 70,93872; 84,65350
298,03720; 61,79680; 69,55191; 83,56376
299,94703; 60,65051; 68,17842; 82,44531
301,85686; 60,03765; 66,87063; 81,30319
303,76669; 59,58248; 65,64341; 80,13470
305,67652; 59,11083; 64,56813; 78,93792
307,58635; 58,60834; 63,67195; 77,71811
309,49618; 58,11496; 63,06994; 76,49948
311,40601; 57,59484; 62,80398; 75,26704
313,31584; 57,08113; 62,44216; 74,04435
315,22567; 56,55732; 62,02884; 72,82452
317,13550; 56,00650; 61,58264; 71,62415
319,04533; 55,49725; 61,09155; 70,44366
320,95516; 54,97562; 60,57065; 69,28311
322,86499; 54,43918; 60,01409; 68,17284
324,77482; 53,89253; 59,42238; 67,09308
326,68465; 53,33040; 58,83261; 66,05847
328,59448; 52,73813; 58,18191; 65,08531
330,50431; 52,12545; 57,47904; 64,17113
332,41414; 51,48845; 56,79856; 63,34056
334,32397; 50,79793; 56,10666; 62,58093
336,23380; 50,09325; 55,34161; 61,91715
338,14363; 49,35175; 54,55461; 61,31155
340,05346; 48,57990; 53,74971; 60,74990
341,96329; 47,77409; 52,90892; 60,18083
343,87312; 46,95900; 52,03114; 59,58946
345,78295; 46,11108; 51,12518; 58,97511
347,69278; 45,24403; 50,20126; 58,33498
349,60261; 44,39947; 49,24290; 57,66212
351,51244; 43,59184; 48,27037; 56,96816
353,42227; 42,88339; 47,31972; 56,24422
355,33210; 42,52887; 46,38574; 55,49484
357,24193; 42,41625; 45,53172; 54,72959
359,15176; 42,27116; 44,93269; 53,94402
361,06159; 42,08385; 44,81282; 53,14531
362,97142; 41,89556; 44,68764; 52,31722
364,88125; 41,68939; 44,49523; 51,46331
366,79108; 41,46173; 44,27373; 50,62332
368,70091; 41,23737; 44,03471; 49,77690
370,61074; 40,98837; 43,77430; 48,93840
372,52057; 40,72726; 43,52255; 48,11148
374,43040; 40,45631; 43,24909; 47,30815
376,34023; 40,17636; 42,95453; 46,51509
378,25006; 39,88277; 42,64512; 45,79547
380,15989; 39,58207; 42,32227; 45,11578
382,06972; 39,27804; 41,99929; 44,51659
383,97955; 38,98727; 41,67506; 44,01726
385,88938; 38,76567; 41,31928; 43,68785
387,79921; 38,73332; 40,98250; 43,45149
389,70904; 38,71371; 40,85408; 43,18290
391,61887; 38,69946; 40,82424; 42,88850
393,52870; 38,67601; 40,82039; 42,59056
395,43853; 38,66235; 40,78530; 42,28694
397,34836; 38,65196; 40,75376; 41,97726
399,25819; 38,63890; 40,73858; 41,63599
401,16802; 38,63093; 40,70917; 41,32813
403,07785; 38,61401; 40,70630; 41,00362
404,98768; 38,59129; 40,67778; 40,67013
406,89751; 38,58784; 40,65424; 40,34528
408,80734; 38,56958; 40,62605; 40,05237
410,71717; 38,55521; 40,60335; 39,91546
412,62700; 38,54153; 40,58793; 39,89627
414,53683; 38,52507; 40,55799; 39,89073
416,44666; 38,51511; 40,53460; 39,87219
418,35649; 38,49702; 40,51402; 39,85166
420,26632; 38,48065; 40,48082; 39,84630
422,17615; 38,45871; 40,46209; 39,82414
424,08598; 38,43615; 40,44111; 39,80545
425,99581; 38,42843; 40,41020; 39,78818
427,90564; 38,41303; 40,39009; 39,77048
429,81547; 38,39758; 40,36988; 39,75412
431,72530; 38,38066; 40,33612; 39,75274
433,63513; 38,35633; 40,29930; 39,74431
435,54496; 38,33754; 40,27512; 39,71722
437,45479; 38,31384; 40,25219; 39,69986
439,36462; 38,29173; 40,21234; 39,68322
441,27445; 38,27436; 40,19873; 39,66554
443,18428; 38,25786; 40,16413; 39,65173
445,09411; 38,24230; 40,13018; 39,63905
447,00394; 38,23248; 40,10698; 39,62477
448,91377; 38,21194; 40,07236; 39,61387
450,82360; 38,19391; 40,03447; 39,59985
452,73343; 38,18025; 40,02008; 39,58673
454,64326; 38,16389; 39,98015; 39,56944
456,55309; 38,14372; 39,92985; 39,54913
458,46292; 38,13370; 39,89466; 39,54189
460,37275; 38,11104; 39,88576; 39,52680
462,28258; 38,09777; 39,85594; 39,50844
464,19241; 38,08407; 39,83249; 39,49224
466,10224; 38,06649; 39,81238; 39,46881
468,01207; 38,05201; 39,77447; 39,45749
469,92190; 38,03479; 39,75528; 39,44969
471,83173; 38,01041; 39,73526; 39,43032
473,74156; 37,99588; 39,71050; 39,40658
475,65139; 37,98370; 39,67866; 39,38929
477,56122; 37,97245; 39,65903; 39,37613
479,47105; 37,96265; 39,63302; 39,35102
481,38088; 37,93476; 39,61694; 39,33297
483,29071; 37,92110; 39,59981; 39,32648
485,20054; 37,89558; 39,56779; 39,30730
487,11037; 37,88844; 39,53511; 39,28525
489,02020; 37,88636; 39,51075; 39,26502
490,93003; 37,87258; 39,47474; 39,24622
492,83986; 37,86062; 39,46307; 39,22110
494,74969; 37,84212; 39,43873; 39,20059
496,65952; 37,82848; 39,42431; 39,18523
497,61443; 37,82146; 39,41721; 39,18523