File: TGA/Gd_TGA.csv
#EXPORTTYPE:                 ;DATA COMPARE                                                   ;DATA COMPARE                                           ;DATA COMPARE
#FILE:                       ;24.05.23_ Gd_2+4_10kmin_30+1000_N2-120.ngb-ds5                 ;12.05.23_ Gd_2+4_3kmin_30+500_N2-120.ngb-ds5           ;12.05.23_ Gd_2+4_5kmin_30+500_N2-120.ngb-ds5
#FORMAT:                     ;NETZSCH5                                                       ;NETZSCH5                                               ;NETZSCH5
#FTYPE:                      ;ANSI                                                           ;ANSI                                                   ;ANSI
#IDENTITY:                   ;Gd_2+4                                                         ;Gd_2+4                                                 ;Gd_2+4
#DECIMAL:                    ;COMMA                                                          ;COMMA                                                  ;COMMA
#SEPARATOR:                  ;SEMICOLON                                                      ;SEMICOLON                                              ;SEMICOLON
#MTYPE:                      ;TG                                                             ;TG                                                     ;TG
#INSTRUMENT:                 ;NETZSCH STA 449F5                                              ;NETZSCH STA 449F5                                      ;NETZSCH STA 449F5
#PROJECT:                    ;                                                               ;                                                       ;
#DATE/TIME:                  ;24.05.2023 16:54:46 (UTC+3)                                    ;12.05.2023 11:55:38 (UTC+3)                            ;26.05.2023 11:21:43 (UTC+3)
#CORR. FILE:                 ;18.03.22_correction for composite-10kmin_40+1000_N2-120.ngb-bs5;11.05.23_correction for composite-3kmin_30-500Ñ.ngb-bs5;10.05.23_correction for composite-5kmin_30-500Ñ.ngb-bs5
#TEMPCAL:                    ;10kmin-N2_washer+Al2O3+cover.ngb-ts5                           ;3kmin-N2_washer+Al2O3+cover.ngb-ts5                    ;5kmin-N2_washer+Al2O3+cover.ngb-ts5
#SENSITIVITY:                ;10kmin-N2_washer+Al2O3+cover.ngb-ts5.ngb-es5                   ;3kmin-N2_washer+Al2O3+cover.ngb-es5                    ;5kmin-N2_washer+Al2O3+cover.ngb-es5
#LABORATORY:                 ;                                                               ;                                                       ;
#OPERATOR:                   ;                                                               ;                                                       ;
#REMARK:                     ;                                                               ;                                                       ;
#SAMPLE:                     ;1                                                              ;1                                                      ;1
#SAMPLE MASS /mg:            ;20,4395                                                        ;24,6870                                                ;19,9405
#MATERIAL:                   ;                                                               ;                                                       ;
#REFERENCE:                  ;                                                               ;                                                       ;
#REFERENCE MASS /mg:         ;0                                                              ;0                                                      ;0
#TYPE OF CRUCIBLE:           ;DSC/TG pan Al2O3                                               ;DSC/TG pan Al2O3                                       ;DSC/TG pan Al2O3
#SAMPLE CRUCIBLE MASS /mg:   ;0                                                              ;0                                                      ;0
#REFERENCE CRUCIBLE MASS /mg:;0                                                              ;0                                                      ;0
#DSC RANGE /µV:              ;5000                                                           ;5000                                                   ;5000
#TG RANGE /mg:               ;35000                                                          ;35000                                                  ;35000
#TAU-R:                      ;---                                                            ;---                                                    ;---
#CORR. CODE:                 ;020                                                            ;020                                                    ;020
#EXO:                        ;+1                                                             ;+1                                                     ;+1
#RANGE:                      ;25°C/10,0(K/min)/1000°C                                        ;30°C/3,0(K/min)/500°C                                  ;30°C/5,0(K/min)/500°C
#SEGMENT:                    ;S1/2                                                           ;S1/1                                                   ;S1/1
#SEG. 1:                     ;25°C/10,0(K/min)/1000°C                                        ;30°C/3,0(K/min)/500°C                                  ;30°C/5,0(K/min)/500°C

##Temp./°C;Mass/%;Mass/%;Mass/%
 24,97800;100,00000;         ;
 28,79766; 99,31947;100,00000;100,00000
 32,61732; 99,34972;100,10937;100,24122
 36,43698; 99,33029;100,15717;100,11034
 40,25664; 99,32239;100,20663;100,07368
 44,07630; 99,32887;100,23454;100,00962
 47,89596; 99,31799;100,25321; 99,96438
 51,71562; 99,31019;100,26934; 99,90463
 55,53528; 99,32092;100,29692; 99,87005
 59,35494; 99,32334;100,31110; 99,81591
 63,17460; 99,32044;100,34188; 99,76730
 66,99426; 99,30882;100,34671; 99,72145
 70,81392; 99,30133;100,37022; 99,68707
 74,63358; 99,29942;100,38971; 99,62940
 78,45324; 99,30400;100,39859; 99,56621
 82,27290; 99,28763;100,40841; 99,52709
 86,09256; 99,30330;100,40628; 99,48045
 89,91222; 99,29940;100,43100; 99,43784
 93,73188; 99,29443;100,44882; 99,40249
 97,55154; 99,28716;100,46947; 99,36059
101,37120; 99,28285;100,48609; 99,32030
105,19086; 99,28231;100,49215; 99,27835
109,01052; 99,26368;100,50677; 99,22742
112,83018; 99,25358;100,51157; 99,15937
116,64984; 99,25585;100,53672; 99,10337
120,46950; 99,25193;100,54847; 99,05138
124,28916; 99,24411;100,55518; 99,00209
128,10882; 99,23108;100,57480; 98,95390
131,92848; 99,22063;100,58982; 98,90825
135,74814; 99,21089;100,58087; 98,85566
139,56780; 99,20254;100,58168; 98,80001
143,38746; 99,18785;100,56264; 98,74425
147,20712; 99,18149;100,55495; 98,68657
151,02678; 99,17104;100,52820; 98,61250
154,84644; 99,15115;100,50512; 98,54220
158,66610; 99,12418;100,44315; 98,46975
162,48576; 99,10027;100,34549; 98,37326
166,30542; 99,05869;100,19448; 98,27888
170,12508; 99,02635;100,01840; 98,14832
173,94474; 98,96626; 99,81103; 97,97759
177,76440; 98,91102; 99,54210; 97,79395
181,58406; 98,80604; 99,21334; 97,56627
185,40372; 98,68974; 98,80404; 97,32085
189,22338; 98,51633; 98,30549; 97,04725
193,04304; 98,36371; 97,74574; 96,71777
196,86270; 98,18023; 97,13396; 96,35225
200,68236; 97,96592; 96,41119; 95,91051
204,50202; 97,66539; 95,60719; 95,43303
208,32168; 97,33520; 94,63622; 94,86225
212,14134; 96,96484; 93,57593; 94,18553
215,96100; 96,47770; 92,42727; 93,42468
219,78066; 95,91192; 91,02990; 92,55896
223,60032; 95,26265; 89,51469; 91,47158
227,41998; 94,50520; 87,99488; 90,37333
231,23964; 93,69018; 86,40838; 89,14403
235,05930; 92,75619; 84,84336; 87,89414
238,87896; 91,79206; 83,28100; 86,63322
242,69862; 90,77510; 81,68738; 85,35839
246,51828; 89,72885; 80,11488; 84,20305
250,33794; 88,72603; 78,73295; 83,12982
254,15760; 87,75679; 77,58520; 82,08562
257,97726; 86,78563; 76,47914; 80,97701
261,79692; 85,87705; 75,41073; 79,81500
265,61658; 84,93526; 74,29193; 78,52956
269,43624; 83,98767; 73,15955; 77,16130
273,25590; 82,99352; 71,97277; 76,03533
277,07556; 81,92850; 70,72493; 75,34634
280,89522; 80,77660; 69,43440; 75,05452
284,71488; 79,56765; 68,22684; 74,47321
288,53454; 78,30064; 67,11083; 73,75739
292,35420; 77,03276; 65,91836; 72,96749
296,17386; 75,85411; 64,68504; 72,04934
299,99352; 74,96271; 63,34318; 71,02514
303,81318; 74,61043; 61,90909; 69,92917
307,63284; 74,24335; 60,40421; 68,74490
311,45250; 73,79358; 58,76398; 67,57581
315,27216; 73,15100; 57,01214; 66,65176
319,09182; 72,47939; 55,30578; 65,83080
322,91148; 71,73662; 54,36093; 64,82379
326,73114; 70,86660; 54,24959; 63,69937
330,55080; 69,91560; 54,08631; 62,61903
334,37046; 68,90241; 53,86826; 61,47100
338,19012; 67,83689; 53,60392; 60,17528
342,00978; 66,83697; 53,33435; 58,71386
345,82944; 65,93085; 53,01724; 57,13451
349,64910; 64,90784; 52,68703; 55,44184
353,46876; 63,69118; 52,36452; 53,68222
357,28842; 62,33759; 52,03898; 52,62005
361,10808; 60,88116; 51,71090; 52,37026
364,92774; 59,31583; 51,33829; 51,88157
368,74740; 57,67479; 50,92876; 51,31029
372,56706; 56,02126; 50,45663; 50,69504
376,38672; 54,43507; 49,96525; 50,02931
380,20638; 53,09252; 49,49505; 49,29891
384,02604; 52,43639; 49,31528; 48,49940
387,84570; 52,26853; 49,30525; 47,63841
391,66536; 52,02449; 49,28749; 46,78563
395,48502; 51,69736; 49,27695; 45,96023
399,30468; 51,30009; 49,25588; 45,29636
403,12434; 50,78240; 49,24616; 44,62963
406,94400; 50,23786; 49,23611; 43,92917
410,76366; 49,61534; 49,23360; 43,21026
414,58332; 48,87876; 49,21908; 42,73162
418,40298; 48,12439; 49,19198; 42,64842
422,22264; 47,30491; 49,18378; 42,57849
426,04230; 46,45025; 49,17325; 42,49346
429,86196; 45,60283; 49,16474; 42,42624
433,68162; 44,77974; 49,14692; 42,32837
437,50128; 44,48293; 49,13489; 42,24446
441,32094; 44,43700; 49,11532; 42,15541
445,14060; 44,39929; 49,12343; 42,06233
448,96026; 44,36208; 49,11087; 41,97587
452,77992; 44,31365; 49,08211; 41,89214
456,59958; 44,27115; 49,06388; 41,78602
460,41924; 44,24391; 49,05376; 41,68948
464,23890; 44,20807; 49,04363; 41,59374
468,05856; 44,16105; 49,02783; 41,49780
471,87822; 44,11650; 49,00920; 41,40278
475,69788; 44,09425; 49,00472; 41,29059
479,51754; 44,04027; 48,98854; 41,18214
483,33720; 43,98589; 48,96666; 41,08311
487,15686; 43,93314; 48,94438; 40,96335
490,97652; 43,87856; 48,92891; 40,84883
494,79618; 43,85040; 48,92130; 40,75228
498,61584; 43,78825; 48,90509; 40,67300
502,43550; 43,74267; 48,90509;
506,25516; 43,69091;         ;
510,07482; 43,62993;         ;
513,89448; 43,57544;         ;
517,71414; 43,53629;         ;
521,53380; 43,47174;         ;
525,35346; 43,41252;         ;
529,17312; 43,34646;         ;
532,99278; 43,29218;         ;
536,81244; 43,22368;         ;
540,63210; 43,14049;         ;
544,45176; 43,05987;         ;
548,27142; 43,00894;         ;
552,09108; 42,97463;         ;
555,91074; 42,89770;         ;
559,73040; 42,81832;         ;
563,55006; 42,75396;         ;
567,36972; 42,68133;         ;
571,18938; 42,63423;         ;
575,00904; 42,56530;         ;
578,82870; 42,48571;         ;
582,64836; 42,43021;         ;
586,46802; 42,36669;         ;
590,28768; 42,31075;         ;
594,10734; 42,24953;         ;
597,92700; 42,19084;         ;
601,74666; 42,12490;         ;
605,56632; 42,06365;         ;
609,38598; 42,01379;         ;
613,20564; 41,96327;         ;
617,02530; 41,90775;         ;
620,84496; 41,83864;         ;
624,66462; 41,78862;         ;
628,48428; 41,74075;         ;
632,30394; 41,67088;         ;
636,12360; 41,60967;         ;
639,94326; 41,55176;         ;
643,76292; 41,49492;         ;
647,58258; 41,43403;         ;
651,40224; 41,36772;         ;
655,22190; 41,29989;         ;
659,04156; 41,23288;         ;
662,86122; 41,17562;         ;
666,68088; 41,12772;         ;
670,50054; 41,07094;         ;
674,32020; 41,00698;         ;
678,13986; 40,95802;         ;
681,95952; 40,90069;         ;
685,77918; 40,83604;         ;
689,59884; 40,77492;         ;
693,41850; 40,72211;         ;
697,23816; 40,67093;         ;
701,05782; 40,61034;         ;
704,87748; 40,55384;         ;
708,69714; 40,48883;         ;
712,51680; 40,42027;         ;
716,33646; 40,38165;         ;
720,15612; 40,32250;         ;
723,97578; 40,26421;         ;
727,79544; 40,20021;         ;
731,61510; 40,14334;         ;
735,43476; 40,08452;         ;
739,25442; 40,04057;         ;
743,07408; 39,97688;         ;
746,89374; 39,92268;         ;
750,71340; 39,88159;         ;
754,53306; 39,84099;         ;
758,35272; 39,77443;         ;
762,17238; 39,71112;         ;
765,99204; 39,66046;         ;
769,81170; 39,61741;         ;
773,63136; 39,54309;         ;
777,45102; 39,48630;         ;
781,27068; 39,43099;         ;
785,09034; 39,37035;         ;
788,91000; 39,32739;         ;
792,72966; 39,28611;         ;
796,54932; 39,22851;         ;
800,36898; 39,16338;         ;
804,18864; 39,10092;         ;
808,00830; 39,03486;         ;
811,82796; 38,98921;         ;
815,64762; 38,93433;         ;
819,46728; 38,88487;         ;
823,28694; 38,83236;         ;
827,10660; 38,77633;         ;
830,92626; 38,69757;         ;
834,74592; 38,64800;         ;
838,56558; 38,58070;         ;
842,38524; 38,52525;         ;
846,20490; 38,46573;         ;
850,02456; 38,40983;         ;
853,84422; 38,34470;         ;
857,66388; 38,29164;         ;
861,48354; 38,23234;         ;
865,30320; 38,19899;         ;
869,12286; 38,13698;         ;
872,94252; 38,08891;         ;
876,76218; 38,04106;         ;
880,58184; 37,97610;         ;
884,40150; 37,93346;         ;
888,22116; 37,88599;         ;
892,04082; 37,82969;         ;
895,86048; 37,78224;         ;
899,68014; 37,72747;         ;
903,49980; 37,66904;         ;
907,31946; 37,64611;         ;
911,13912; 37,59900;         ;
914,95878; 37,55674;         ;
918,77844; 37,49603;         ;
922,59810; 37,44069;         ;
926,41776; 37,39348;         ;
930,23742; 37,35651;         ;
934,05708; 37,30384;         ;
937,87674; 37,24917;         ;
941,69640; 37,21225;         ;
945,51606; 37,16462;         ;
949,33572; 37,11202;         ;
953,15538; 37,07283;         ;
956,97504; 37,03612;         ;
960,79470; 36,98308;         ;
964,61436; 36,95776;         ;
968,43402; 36,90354;         ;
972,25368; 36,84767;         ;
976,07334; 36,79393;         ;
979,89300; 36,74747;         ;
983,71266; 36,69834;         ;
987,53232; 36,63641;         ;
991,35198; 36,57088;         ;
995,17164; 36,51743;         ;
996,12656; 36,50268;         ;