File: src/TGA/Dy_TGA.csv
temperature;rate_3;rate_5;rate_10;rate_3_diff;rate_5_diff;rate_10_diff;rate_3_diff_reaction_0;rate_3_diff_reaction_1;rate_3_diff_reaction_2;rate_3_diff_reaction_3;rate_3_diff_reaction_4;rate_3_diff_reaction_5;rate_3_diff_reaction_6;rate_3_diff_cumulative;rate_5_diff_reaction_0;rate_5_diff_reaction_1;rate_5_diff_reaction_2;rate_5_diff_reaction_3;rate_5_diff_reaction_4;rate_5_diff_reaction_5;rate_5_diff_reaction_6;rate_5_diff_cumulative;rate_10_diff_reaction_0;rate_10_diff_reaction_1;rate_10_diff_reaction_2;rate_10_diff_reaction_3;rate_10_diff_reaction_4;rate_10_diff_reaction_5;rate_10_diff_reaction_6;rate_10_diff_cumulative
31.63192;99.99894;100.076;99.96317;0.000189379;0.0257306;-0.006491155;1.06E-07;1.90E-14;2.60E-17;1.79E-05;2.16E-193;1.15E-36;6.83E-23;1.80E-05;3.33E-08;2.45E-32;1.09E-17;3.00E-05;3.21E-201;1.96E-38;1.69E-27;3.00E-05;2.16E-08;3.68E-18;1.23E-16;1.12E-06;4.32E-201;1.72E-53;3.65E-34;1.14E-06
45.95564;99.99343;100.052;99.98957;-0.000913434;-0.002663677;-0.00097913;3.49E-07;1.47E-13;2.83E-16;3.13E-05;1.67E-184;4.14E-35;5.28E-22;3.17E-05;1.16E-07;2.90E-30;1.18E-16;5.00E-05;2.47E-192;7.04E-37;1.84E-26;5.01E-05;7.12E-08;4.00E-17;9.54E-16;2.15E-06;7.82E-193;2.04E-51;6.40E-33;2.22E-06
60.27937;100.012;100.042;99.98661;-0.001959111;0.000564782;-0.001293436;1.15E-06;1.14E-12;3.08E-15;5.50E-05;1.28E-175;1.49E-33;4.09E-21;5.61E-05;4.02E-07;3.43E-28;1.29E-15;8.34E-05;1.91E-183;2.53E-35;2.00E-25;8.38E-05;2.35E-07;4.36E-16;7.38E-15;4.12E-06;1.41E-184;2.42E-49;1.12E-31;4.35E-06
74.60309;100.032;100.055;99.98603;0.002056851;0.000225188;-0.000515182;3.80E-06;8.81E-12;3.36E-14;9.64E-05;9.90E-167;5.33E-32;3.16E-20;1.00E-04;1.40E-06;4.06E-26;1.40085E-14;1.39E-04;1.47E-174;9.07E-34;2.17E-24;0.000140524;7.75E-07;4.74E-15;5.71E-14;7.90E-06;2.56E-176;2.87E-47;1.97E-30;8.67E-06
88.92682;100.01;100.049;99.97739;-0.002323238;0.000617585;0.001246428;1.25E-05;6.82E-11;3.65436E-13;1.69E-04;7.62E-158;1.92E-30;2.45E-19;0.000181525;4.85E-06;4.81E-24;1.52468E-13;2.32E-04;1.13E-165;3.26E-32;2.37E-23;0.000236863;2.56E-06;5.16E-14;4.42E-13;1.51E-05;4.63E-168;3.39E-45;3.46E-29;1.77E-05
103.251;100.017;100.033;99.972;-0.001902857;0.002377494;0.002511419;4.13E-05;5.28E-10;3.97738E-12;2.96E-04;5.87E-149;6.88E-29;1.89E-18;0.000337631;1.69E-05;5.70E-22;1.65945E-12;3.87E-04;8.71E-157;1.17E-30;2.58E-22;0.000403722;8.44E-06;5.62E-13;3.42E-12;2.90E-05;8.39E-160;4.02E-43;6.06E-28;3.75E-05
117.574;100.018;100.034;99.95904;0.001641233;0.000176685;0.000536405;0.000136262;4.08E-09;4.32895E-11;5.19E-04;4.53E-140;2.47E-27;1.47E-17;0.000655737;5.86E-05;6.76E-20;1.80614E-11;6.45E-04;6.71E-148;4.20E-29;2.80E-21;0.000703525;2.78E-05;6.12E-12;2.65E-11;5.57E-05;1.52E-151;4.76E-41;1.06E-26;8.35E-05
131.898;99.98107;100.008;99.94187;0.005540006;0.002303718;0.001373828;0.000449201;3.16E-08;4.7116E-10;9.10E-04;3.49E-131;8.87E-26;1.13E-16;0.001359681;0.000203478;8.00E-18;1.96579E-10;1.07E-03;5.17E-139;1.51E-27;3.05E-20;0.001278322;9.18E-05;6.66E-11;2.04973E-10;1.07E-04;2.75E-143;5.64E-39;1.87E-25;0.000198558
146.222;99.92484;99.9864;99.92728;0.002753285;0.002796105;0.002415096;0.001478245;2.45E-07;5.12808E-09;1.59E-03;2.69E-122;3.18E-24;8.78E-16;0.003073481;0.000705778;9.48E-16;2.13955E-09;1.79E-03;3.99E-130;5.42E-26;3.32E-19;0.00249617;0.000302652;7.24E-10;1.58624E-09;2.05E-04;4.97E-135;6.68E-37;3.27E-24;0.000507313
160.545;99.8314;99.90683;99.87211;0.0102102;0.005875072;0.004215636;0.004836724;1.89E-06;5.58136E-08;2.79E-03;2.07E-113;1.14E-22;6.79E-15;0.007630715;0.002437235;1.12E-13;2.32867E-08;2.98E-03;3.07E-121;1.94E-24;3.61E-18;0.00541696;0.000995935;7.88E-09;1.22756E-08;3.92E-04;9.00E-127;7.92E-35;5.74E-23;0.001388249
174.869;99.64749;99.78184;99.80106;0.0217694;0.0108537;0.009706025;0.0155316;1.46E-05;6.07471E-07;4.88E-03;1.59E-104;4.11E-21;5.26E-14;0.0204278;0.008290211;1.33E-11;2.53451E-07;4.95E-03;2.37E-112;6.98E-23;3.93E-17;0.0132424;0.003258329;8.58E-08;9.49984E-08;7.52E-04;1.63E-118;9.38E-33;1.01E-21;0.004010188
189.193;99.05285;99.45144;99.6668;0.0640888;0.0369344;0.0138333;0.0470473;0.0001133;6.61159E-06;8.51E-03;1.23E-95;1.47E-19;4.07E-13;0.0556797;0.02683738;1.58E-09;2.75852E-06;8.21E-03;1.82E-103;2.51E-21;4.28E-16;0.03505;0.0104621;9.34E-07;7.35172E-07;1.44E-03;2.95E-110;1.11E-30;1.77E-20;0.011903
203.517;97.73303;98.61413;99.37113;0.139784;0.088461;0.0377369;0.121398;0.000873906;7.19514E-05;1.48E-02;9.46E-87;5.29E-18;3.15E-12;0.137129;0.0753261;1.87E-07;3.00215E-05;1.36E-02;1.40E-94;9.00E-20;4.66E-15;0.0889144;0.0317108;1.02E-05;5.68927E-06;2.75E-03;5.33E-102;1.32E-28;3.10E-19;0.0344787
217.84;94.96756;96.76612;98.49105;0.251839;0.170023;0.0942612;0.223908;0.006593887;0.000782074;2.55E-02;7.29E-78;1.90E-16;2.44E-11;0.256785;0.156491;2.21146E-05;0.00032651;2.22E-02;1.08E-85;3.23E-18;5.07E-14;0.179087;0.0823572;0.000110568;4.40235E-05;5.25E-03;9.65E-94;1.56E-26;5.44E-18;0.0877604
232.164;90.60993;93.54285;96.57292;0.347977;0.266807;0.168283;0.251137;0.0427089;0.00839081;4.35E-02;5.62E-69;6.82E-15;1.89E-10;0.345702;0.222554;0.002577827;0.003525271;3.61E-02;8.33E-77;1.16E-16;5.52E-13;0.264787;0.157874;0.001195248;0.000340413;9.96E-03;1.75E-85;1.85E-24;9.55E-17;0.16937
246.488;84.9307;88.77253;93.55554;0.451558;0.451331;0.247523;0.153783;0.139952;0.079068;7.26E-02;4.33E-60;2.45E-13;1.46E-09;0.445449;0.226128;0.105479;0.0352943;5.77E-02;6.42E-68;4.17E-15;6.01E-12;0.424629;0.208111;0.0121145;0.002617929;1.87E-02;3.16E-77;2.19E-22;1.68E-15;0.241571
260.812;77.26695;81.22216;89.52465;0.610277;0.577196;0.330393;0.0545764;0.07703546;0.349226;1.18E-01;3.33E-51;8.80E-12;1.13E-08;0.598543;0.13906;0.143833;0.205184;9.00E-02;4.95E-59;1.50E-13;6.54E-11;0.578054;0.195873;0.0753951;0.0193255;3.46E-02;5.72E-69;2.59E-20;2.94E-14;0.325213
275.135;70.57408;73.01438;83.94623;0.187765;0.529919;0.452292;0.0146913;0.003505603;0.01269873;1.82E-01;2.57E-42;3.16E-10;8.74E-08;0.213018;0.040642;0.0116408;0.337998;1.35E-01;3.81E-50;5.37E-12;7.12E-10;0.52557;0.129604;0.14061;0.110208;6.21E-02;1.04E-60;3.07E-18;5.16E-13;0.44252
289.459;67.2291;68.4466;77.11504;0.266018;0.24295;0.479751;0.003619116;9.99E-05;4.89826E-07;2.65E-01;1.98E-33;1.13E-08;6.76E-07;0.268459;0.007750542;0.000105912;0.00156326;1.94E-01;2.94E-41;1.93E-10;7.75E-09;0.203227;0.0594563;0.03342361;0.275184;1.06E-01;1.87E-52;3.64E-16;9.05E-12;0.474019
303.783;62.8393;64.74074;71.1627;0.349851;0.272845;0.288882;0.000870863;2.79E-06;1.77189E-11;3.57E-01;1.52E-24;4.07E-07;5.23E-06;0.357996;0.001325464;8.95E-07;5.53275E-07;2.62E-01;2.26E-32;6.93E-09;8.43E-08;0.262994;0.0212765;0.00035981;0.099604;1.68E-01;3.39E-44;4.31E-14;1.59E-10;0.288969
318.106;57.22518;60.419;67.64761;0.44;0.333218;0.256842;0.000208321;7.76308E-08;5.93947E-16;4.46E-01;1.17E-15;1.46E-05;4.05E-05;0.446088;0.000222143;7.55E-09;1.93766E-10;3.31E-01;1.74E-23;2.49E-07;9.18E-07;0.331417;0.006820564;3.04659E-06;0.001208584;2.41E-01;6.14E-36;5.10E-12;2.79E-09;0.249035
332.43;50.37344;55.21202;63.53758;0.40923;0.401192;0.313509;4.98E-05;2.16204E-09;0;4.09E-01;8.87406E-07;0.000521164;0.000312942;0.409418;3.70997E-05;6.38E-11;6.78564E-14;3.94E-01;1.34E-14;8.93E-06;9.99E-06;0.393976;0.002104078;2.57E-08;1.02807E-05;3.12E-01;1.11E-27;6.05E-10;4.89E-08;0.314218
346.754;49.05141;49.55302;58.61133;0.0551728;0.221204;0.381057;1.19E-05;6.02123E-11;0.00E+00;1.43387E-05;0.03332603;0.0147925;0.00239212;0.0505369;6.19E-06;5.38E-13;0;2.03E-01;1.02982E-05;0.000319103;0.000108622;0.203908;0.000641222;2.17E-10;8.68371E-08;3.69E-01;2.01E-19;7.16E-08;8.57E-07;0.36949
361.078;48.10098;48.78096;52.95805;0.0777437;0.04706877;0.387827;2.84E-06;1.67689E-12;0.00E+00;1.03443E-10;0.006298765;0.0589917;0.0169088;0.0822021;1.03E-06;4.54747E-15;0.00E+00;2.89653E-05;0.0328616;0.009753194;0.001172901;0.0438177;1.95E-04;1.83E-12;7.33105E-10;4.03E-01;3.64E-11;8.48E-06;1.50E-05;0.403055
375.401;46.76233;47.95108;49.40958;0.112665;0.0732387;0.0322519;6.77E-07;4.66782E-14;0.00E+00;7.01818E-16;0.000413609;0.0300407;0.07834289;0.108798;1.72E-07;3.55271E-17;0.00E+00;2.17268E-09;0.005745064;0.0532956;0.01175624;0.0707971;5.90E-05;1.55E-14;6.18869E-12;0.0271269;0.005806677;0.000990184;0.000263305;0.0342461
389.725;44.94382;46.73625;48.50418;0.0743655;0.101253;0.0797541;1.62E-07;1.27676E-15;0;0.00E+00;2.37809E-05;0.002889958;0.0663107;0.0692246;2.88E-08;0;0.00E+00;1.59861E-13;0.000187566;0.03324785;0.0687657;0.102201;1.79E-05;1.42E-16;5.23E-14;2.31493E-05;0.0323194;0.0427116;0.00445775;0.0795298
404.049;44.85279;45.0592;47.19613;0.004324398;0.118146;0.102883;3.86E-08;5.10703E-17;0;0.00E+00;1.35613E-06;1.71E-04;3.01E-07;0.000173103;4.80E-09;0;0;0.00E+00;5.24886E-06;0.003691508;0.114183;0.11788;5.43E-06;0.00E+00;4.05E-16;1.82514E-08;0.00142813;0.0586486;0.0484389;0.108521
418.372;44.80832;44.66784;45.48561;0.002880439;0.003855525;0.126719;9.22E-09;0;0;0.00E+00;7.73E-08;9.79E-06;6.76E-13;9.88E-06;8.02E-10;0;0;0.00E+00;1.46199E-07;2.22E-04;9.35E-07;0.000223423;1.64E-06;0.00E+00;0.00E+00;1.43E-11;2.74158E-05;0.0113189;0.104677;0.116025
432.696;44.75108;44.6274;45.02656;0.004366815;0.005145237;0.000308441;2.20E-09;0;0;0.00E+00;4.41E-09;5.5822E-07;0;5.65E-07;1.34E-10;0;0;0.00E+00;4.07E-09;1.27E-05;5.66E-13;1.27E-05;4.99E-07;0;0.00E+00;1.11E-14;5.13141E-07;3.77E-04;2.61E-05;0.000404281
447.02;44.71074;44.57097;45.00278;0.002694588;0.004208382;0.000346615;5.25E-10;0;0;0.00E+00;2.51E-10;3.18175E-08;0;3.26E-08;2.23E-11;0;0;0.00E+00;1.13E-10;7.24802E-07;0;7.25E-07;1.51E-07;0;0.00E+00;0.00E+00;9.60E-09;1.06E-05;3.28E-10;1.07E-05
461.344;44.66251;44.52776;44.98184;0.002906496;0.003119543;0.001294285;1.25E-10;0;0;0.00E+00;1.43E-11;1.81352E-09;0;1.95E-09;3.73E-12;0;0;0.00E+00;3.16E-12;4.13124E-08;0;4.13E-08;4.58E-08;0;0;0.00E+00;1.80E-10;2.94E-07;4.10E-15;3.40E-07
475.667;44.61489;44.49463;44.9576;0.000806008;0.002588279;0.001931453;2.99E-11;0;0;0.00E+00;8.16E-13;1.03367E-10;0;1.34E-10;6.22E-13;0;0;0.00E+00;8.79E-14;2.35472E-09;0;2.36E-09;1.39E-08;0;0;0.00E+00;3.36E-12;8.19362E-09;0;2.21E-08
489.991;44.57007;44.44307;44.93208;0.002166104;0.002190873;0.001252473;7.15E-12;0;0;0.00E+00;4.65E-14;5.89165E-12;0;1.31E-11;1.04E-13;0;0;0.00E+00;2.45E-15;1.34213E-10;0;1.34E-10;4.21E-09;0;0;0.00E+00;6.29E-14;2.2819E-10;0;4.44E-09
500.495;44.53659;44.39879;44.91998;0.000426645;0.00477235;-0.000271983;2.50E-12;0;0;0.00E+00;5.69E-15;7.2089E-13;0;3.23E-12;2.50E-12;0;0;0.00E+00;5.69E-15;7.2089E-13;0;3.23E-12;2.50E-12;0;0;0.00E+00;5.69E-15;7.2089E-13;0;3.23E-12