File: src/TGA/Er_TGA.csv
temperature;rate_3;rate_5;rate_10;rate_3_diff;rate_5_diff;rate_10_diff;rate_3_diff_reaction_0;rate_3_diff_reaction_1;rate_3_diff_reaction_2;rate_3_diff_reaction_3;rate_3_diff_reaction_4;rate_3_diff_reaction_5;rate_3_diff_reaction_6;rate_3_diff_cumulative;rate_5_diff_reaction_0;rate_5_diff_reaction_1;rate_5_diff_reaction_2;rate_5_diff_reaction_3;rate_5_diff_reaction_4;rate_5_diff_reaction_5;rate_5_diff_reaction_6;rate_5_diff_cumulative;rate_10_diff_reaction_0;rate_10_diff_reaction_1;rate_10_diff_reaction_2;rate_10_diff_reaction_3;rate_10_diff_reaction_4;rate_10_diff_reaction_5;rate_10_diff_reaction_6;rate_10_diff_cumulative
30.661;100;100;100;0;0;0;8.71E-07;4.22E-22;1.95E-22;4.31E-06;6.26E-180;2.59E-50;4.28E-39;5.18E-06;5.37E-07;6.59E-16;1.11E-16;1.99E-08;2.39E-146;5.92E-51;7.43E-32;5.57E-07;1.65E-07;1.52E-19;7.50E-18;1.49E-10;1.33E-174;2.17E-54;1.06E-41;1.65E-07
44.98472;99.71263;100.398;99.6569;-0.004271157;-0.001725025;-0.001230152;2.02E-06;7.41E-21;3.41E-21;7.64E-06;3.74E-172;3.07E-48;1.54E-37;9.67E-06;1.31E-06;5.10E-15;8.61E-16;4.62E-08;3.98E-140;7.01E-49;1.30E-30;1.36E-06;4.04E-07;1.66E-18;5.80E-17;4.15E-10;1.09E-167;2.57E-52;3.80E-40;4.04E-07
59.30845;99.73609;100.416;99.67501;-0.001847771;0.002400675;-0.002913153;4.70E-06;1.30E-19;5.99E-20;1.36E-05;2.23E-164;3.64E-46;5.52E-36;1.83E-05;3.22E-06;3.95E-14;6.66E-15;1.07E-07;6.61E-134;8.31E-47;2.29E-29;3.32E-06;9.88E-07;1.80E-17;4.49E-16;1.15E-09;8.89E-161;3.04E-50;1.37E-38;9.89E-07
73.63217;99.77172;100.403;99.66764;-0.000123093;0.005553072;-0.001906517;1.09E-05;2.28E-18;1.05E-18;2.40E-05;1.33E-156;4.31E-44;1.98E-34;3.50E-05;7.88E-06;3.06E-13;5.16E-14;2.49E-07;1.10E-127;9.84E-45;4.01E-28;8.12E-06;2.42E-06;1.96E-16;3.47E-15;3.21E-09;7.26E-154;3.60E-48;4.90E-37;2.42E-06
87.9559;99.76429;100.373;99.67172;-0.000173491;0.001498687;0.002235105;2.53E-05;4.00E-17;1.84E-17;4.26E-05;7.95E-149;5.10E-42;7.12E-33;6.80E-05;1.93E-05;2.36E-12;3.99E-13;5.78E-07;1.83E-121;1.17E-42;7.04E-27;1.99E-05;5.92E-06;2.13E-15;2.69E-14;8.93E-09;5.93E-147;4.27E-46;1.76E-35;5.93E-06
102.28;99.76553;100.389;99.65703;-0.000672269;-0.001693265;0.000338702;5.88E-05;7.02E-16;3.24E-16;7.56E-05;4.74E-141;6.05E-40;2.56E-31;0.000134447;4.72E-05;1.83E-11;3.09E-12;1.34E-06;3.04E-115;1.38E-40;1.24E-25;4.85284E-05;1.45E-05;2.32E-14;2.08E-13;2.48E-08;4.84E-140;5.05E-44;6.32E-34;1.45E-05
116.603;99.76471;100.354;99.63185;0.000153932;0.004386428;0.000359127;0.000136641;1.23E-14;5.67632E-15;1.34E-04;2.83E-133;7.16E-38;9.18E-30;0.000270711;1.15E-04;1.42E-10;2.39E-11;3.12E-06;5.05E-109;1.64E-38;2.17E-24;0.000118605;3.55E-05;2.53E-13;1.61E-12;6.91E-08;3.95E-133;5.99E-42;2.27E-32;3.55E-05
130.927;99.75361;100.31;99.62405;0.001225902;0.004161691;0.00318953;0.000317249;2.16E-13;9.95885E-14;2.38E-04;1.69E-125;8.49E-36;3.30E-28;0.000554986;0.000282578;1.10E-09;1.85E-10;7.24E-06;8.39E-103;1.94E-36;3.80E-23;0.000289824;8.68E-05;2.75E-12;1.25E-11;1.92E-07;3.22E-126;7.09E-40;8.15E-31;8.70E-05
145.2508;99.72716;100.244;99.6012;0.001928634;0.002359093;0.003700329;0.00073634;3.79E-12;1.74724E-12;4.22E-04;1.01E-117;1.01E-33;1.18E-26;0.00115786;0.000691018;8.48E-09;1.43E-09;1.68E-05;1.39E-96;2.30E-34;6.67E-22;0.000707852;0.000212363;3.00E-11;9.64E-11;5.35E-07;2.63E-119;8.40E-38;2.93E-29;0.000212898
159.575;99.70284;100.189;99.56515;0.003337913;0.004368717;0.000736566;0.001707779;6.65E-11;3.06546E-11;7.47E-04;6.02E-110;1.19E-31;4.25E-25;0.002455012;0.001687326;6.56E-08;1.11E-08;3.91E-05;2.32E-90;2.72E-32;1.17E-20;0.001726471;0.000519229;3.26E-10;7.46E-10;1.49E-06;2.15E-112;9.95E-36;1.05E-27;0.000520718
173.898;99.64139;100.097;99.52427;0.006543179;0.0117009;0.005271875;0.003953966;1.17E-09;5.37822E-10;1.32E-03;3.59E-102;1.41E-29;1.53E-23;0.005278142;0.004105341;5.08E-07;8.57E-08;9.07E-05;3.85E-84;3.22E-30;2.05E-19;0.004196657;0.001267359;3.55E-09;5.78E-09;4.14E-06;1.75E-105;1.18E-33;3.77E-26;0.001271508
188.222;99.49842;99.9261;99.46789;0.0128577;0.0158823;0.006810699;0.009117997;2.05E-08;9.43585E-09;2.35E-03;2.15E-94;1.67E-27;5.48E-22;0.0114632;0.009902322;3.93E-06;6.63384E-07;2.11E-04;6.41E-78;3.82E-28;3.60E-18;0.0101176;0.00308062;3.86E-08;4.47E-08;1.15E-05;1.43E-98;1.40E-31;1.35E-24;0.003092219
202.5457;99.22366;99.58038;99.37265;0.0288058;0.0313087;0.0104833;0.0208355;3.59E-07;1.65548E-07;4.15E-03;1.28E-86;1.98E-25;1.97E-20;0.024985;0.0234009;3.04E-05;5.13377E-06;4.89E-04;1.07E-71;4.52E-26;6.32E-17;0.0239255;0.007413749;4.20E-07;3.46E-07;3.20E-05;1.17E-91;1.65E-29;4.86E-23;0.007446549
216.869;98.65147;98.95977;99.18814;0.0560708;0.0586464;0.017182;0.0466482;6.30E-06;2.90446E-06;7.33E-03;7.64E-79;2.34E-23;7.07E-19;0.0539838;0.0528041;0.00023525;3.97271E-05;1.13E-03;1.77E-65;5.36E-24;1.11E-15;0.0542135;0.0174271;4.58E-06;2.68E-06;8.91E-05;9.55E-85;1.96E-27;1.75E-21;0.0175234
231.193;97.46614;97.78251;98.81687;0.118108;0.115019;0.0383395;0.0999273;1.11E-04;5.09545E-05;1.29E-02;4.56E-71;2.78E-21;2.54E-17;0.112983;0.108386;0.001812328;0.000307317;2.63E-03;2.94E-59;6.35E-22;1.95E-14;0.113134;0.0388691;4.97938E-05;2.07168E-05;2.48E-04;7.79E-78;2.32E-25;6.27E-20;0.0391874
245.517;95.05568;95.54659;98.00484;0.226706;0.207566;0.0816798;0.194509;0.001934353;0.000893033;2.26E-02;2.72E-63;3.29E-19;9.11E-16;0.2199;0.188047;0.0135506;0.002370938;6.07E-03;4.89E-53;7.52E-20;3.41E-13;0.210038;0.0780466;0.000540988;0.000160282;6.89E-04;6.36E-71;2.75E-23;2.25E-18;0.0794366
259.8406;90.8986;91.52348;96.40529;0.359056;0.362633;0.149165;0.27576;0.0323792;0.0153838;3.91E-02;1.63E-55;3.90E-17;3.27E-14;0.362618;0.238998;0.0829769;0.0179209;1.39E-02;8.13E-47;8.90E-18;5.99E-12;0.35381;0.131716;0.005776292;0.00123796;1.91E-03;5.20E-64;3.26E-21;8.08E-17;0.140642
274.164;84.22347;85.19005;93.66548;0.774079;0.529684;0.241888;0.0982189;0.300223;0.204757;6.66E-02;9.70E-48;4.62E-15;1.17E-12;0.669812;0.125477;0.237431;0.117506;3.14E-02;1.35E-40;1.05E-15;1.05E-10;0.511797;0.176215;0.0520761;0.009437107;5.28E-03;4.24E-57;3.86E-19;2.90E-15;0.24301
288.488;70.66377;76.41044;88.61342;1.03123;0.698588;0.477271;0.008550329;2.25E-01;0.68172;1.10E-01;5.79E-40;5.47E-13;4.22E-11;1.02615;0.0191415;0.191027;0.416671;6.83E-02;2.25E-34;1.25E-13;1.84E-09;0.695149;0.171213;0.193567;0.0654518;1.44E-02;3.46E-50;4.57E-17;1.04E-13;0.44466
302.812;59.81919;66.23273;80.72174;0.242969;0.627534;0.616121;0.000550439;1.94E-02;0.0822493;1.76E-01;3.46E-32;6.48E-11;1.51E-09;0.277844;0.001924057;2.49E-02;0.465396;1.38E-01;3.74E-28;1.48E-11;3.23E-08;0.630673;0.0966247;0.199082;0.279963;3.82E-02;2.83E-43;5.41E-15;3.74E-12;0.61388
317.1355;56.0065;61.58264;71.62415;0.276201;0.252507;0.621144;3.30E-05;1.14E-03;7.18075E-05;2.63E-01;2.06E-24;7.67E-09;5.44E-08;0.264377;0.000180749;1.53E-03;0.001532837;2.48E-01;6.21E-22;1.75E-09;5.67E-07;0.251493;0.0297968;0.0571799;0.445028;9.38E-02;2.31E-36;6.41E-13;1.34E-10;0.62578
331.459;51.81401;57.15812;63.7445;0.343568;0.367956;0.423803;1.93E-06;6.50E-05;5.57279E-08;3.66E-01;1.23E-16;9.09E-07;1.95E-06;0.366064;1.67359E-05;8.77E-05;1.20215E-06;3.77E-01;1.03E-15;2.08E-07;9.95E-06;0.377056;0.006797685;6.47E-03;0.158733;1.96E-01;1.88E-29;7.60E-11;4.83E-09;0.368497
345.783;46.11108;51.12518;58.97511;0.44899;0.485364;0.333744;1.11E-07;3.71E-06;4.32E-11;4.59E-01;7.28147E-09;1.07E-04;7.01E-05;0.459379;1.54E-06;5.00E-06;9.33461E-10;4.85E-01;1.70E-09;2.45932E-05;0.000174534;0.485233;0.001422853;6.08E-04;0.009280596;3.24E-01;1.54E-22;9.00E-09;1.73E-07;0.335383
360.107;42.1863;44.85721;53.53775;0.0916624;0.118609;0.426298;6.34E-09;2.11E-07;3.36E-14;0.0129552;0.07212166;0.0108486;0.002492061;0.0984178;1.42E-07;2.85E-07;7.24E-13;0.117056;0.002456272;0.002822341;0.003029723;0.125365;2.92E-04;5.60E-05;0.000391806;4.21E-01;1.26E-15;1.07E-06;6.22E-06;0.421805
374.4304;40.45631;43.24909;47.30815;0.146047;0.148965;0.4119632;3.62E-10;1.20459E-08;0.00E+00;7.90123E-06;0.0179484;0.0552188;0.0662268;0.139402;1.30E-08;1.62E-08;5.95E-16;2.04552E-05;0.0408675;0.06936403;0.0448313;0.155083;5.95E-05;5.14E-06;1.62588E-05;4.13E-01;1.01932E-08;0.000126156;0.000223178;0.413054
388.754;38.73004;40.88951;43.31758;0.005850295;0.0715643;0.133994;2.07E-11;6.86589E-10;0.00E+00;4.51E-09;0.000910089;0.00558991;0.006785818;0.0132858;1.20E-09;9.25538E-10;0.00E+00;2.72366E-09;0.003214243;0.009268501;0.0546115;0.0670943;1.21E-05;4.72E-07;6.74E-07;0.0774802;0.0392894;0.0130828;0.007739533;0.137605
403.078;38.61401;40.7063;41.00362;0.007371355;0.0114545;0.174325;1.18E-12;3.91339E-11;0.00E+00;2.50E-12;3.92503E-05;3.31E-04;5.35E-07;0.000370286;1.10E-10;5.27534E-11;0.00E+00;3.57E-13;0.000187258;2.78E-04;6.12E-07;0.000466158;2.47E-06;4.34E-08;2.79E-08;0.002586444;0.0128892;0.0374768;0.120214;0.173169
417.402;38.51157;40.51963;39.85971;0.008030145;0.0133417;0.008318549;6.72E-14;2.23058E-12;0.00E+00;1.43E-15;1.68E-06;1.89E-05;3.82E-11;2.06E-05;1.01E-11;3.00682E-12;0;0.00E+00;1.07E-05;7.77E-06;4.07E-12;1.85E-05;5.03E-07;3.99E-09;1.16E-09;7.28E-05;0.000405108;0.00050435;0.000407779;0.001390581
431.7253;38.38066;40.33612;39.75274;0.0102811;0.01596999;0.006352269;3.78E-15;1.27125E-13;0;0.00E+00;7.19E-08;1.08E-06;2.72E-15;1.15E-06;9.30E-13;1.71363E-13;0;0.00E+00;6.09E-07;2.16E-07;0.00E+00;8.25E-07;1.02E-07;3.66E-10;4.80E-11;2.03E-06;1.13E-05;4.28E-06;2.97E-08;1.78E-05
446.049;38.23823;40.11914;39.63242;0.00903556;0.018407;0.00683626;1.64E-16;7.27418E-15;0;0.00E+00;3.08E-09;6.13344E-08;0;6.44E-08;8.54E-14;9.79217E-15;0;0.00E+00;3.47E-08;6.02423E-09;0;4.07E-08;2.09E-08;3.37E-11;1.99E-12;5.67E-08;3.15E-07;3.61E-08;2.12E-12;4.29E-07
460.373;38.11104;39.88576;39.5268;0.008486667;0.0102652;0.007781742;0.00E+00;3.4639E-16;0;0.00E+00;1.32E-10;3.49592E-09;0;3.63E-09;7.82E-15;5.44009E-16;0;0.00E+00;1.98E-09;1.67773E-10;0;2.15E-09;4.25E-09;3.09E-12;8.26E-14;1.58E-09;8.78E-09;3.05E-10;1.47E-16;1.49E-08
474.696;37.99175;39.69977;39.4009;0.006383387;0.01315199;0.0105583;0.00E+00;0;0;0.00E+00;5.63E-12;1.99259E-10;0;2.05E-10;7.11E-16;0;0;0.00E+00;1.13E-10;4.67245E-12;0;1.17E-10;8.64E-10;2.84E-13;3.42E-15;4.40E-11;2.45E-10;2.57351E-12;0;1.16E-09
489.0202;37.88636;39.51075;39.26502;0.005157698;0.0138937;0.011054;0.00E+00;0;0;0.00E+00;2.41E-13;1.13573E-11;0;1.16E-11;8.88E-17;0;0;0.00E+00;6.43E-12;1.30127E-13;0;6.56E-12;1.76E-10;2.61E-14;1.22E-16;1.22E-12;6.81E-12;2.1716E-14;0;1.84E-10
497.614;37.82146;39.41721;39.18523;-0.0760056;-0.0792124;-0.0787462;0.00E+00;0;0;0.00E+00;3.64E-14;2.03607E-12;0;2.07E-12;0.00E+00;0;0;0.00E+00;1.15E-12;1.51834E-14;0;1.17E-12;6.77E-11;6.22E-15;0.00E+00;1.43E-13;7.95E-13;1.22569E-15;0;6.87E-11