File: src/TGA/Gd_TGA.csv
temperature;rate_3;rate_5;rate_10;rate_3_diff;rate_5_diff;rate_10_diff;rate_3_diff_reaction_0;rate_3_diff_reaction_1;rate_3_diff_reaction_2;rate_3_diff_reaction_3;rate_3_diff_reaction_4;rate_3_diff_reaction_5;rate_3_diff_reaction_6;rate_3_diff_reaction_7;rate_3_diff_cumulative;rate_5_diff_reaction_0;rate_5_diff_reaction_1;rate_5_diff_reaction_2;rate_5_diff_reaction_3;rate_5_diff_reaction_4;rate_5_diff_reaction_5;rate_5_diff_reaction_6;rate_5_diff_reaction_7;rate_5_diff_cumulative;rate_10_diff_reaction_0;rate_10_diff_reaction_1;rate_10_diff_reaction_2;rate_10_diff_reaction_3;rate_10_diff_reaction_4;rate_10_diff_reaction_5;rate_10_diff_reaction_6;rate_10_diff_reaction_7;rate_10_diff_cumulative
29.476;100;100;100;0;0;0;3.18E-06;4.98E-12;5.72E-13;2.17E-14;9.51E-11;3.21E-135;1.82E-36;3.39E-38;3.26E-06;3.48E-07;8.93E-12;7.72E-16;5.06E-13;3.07E-10;5.23E-183;2.02E-39;3.97E-33;1.74E-04;4.12E-07;9.06E-13;1.67E-13;1.75E-11;2.45E-18;2.18E-133;1.64E-42;8.68E-44;7.44E-06
44.75464;99.51485;100.355;99.37547;0.001793737;-0.002827905;-0.001620182;8.80E-06;3.36E-11;3.86E-12;1.46E-13;3.40E-10;1.39E-128;8.30E-35;1.54E-36;1.26E-05;1.13E-06;4.88E-11;6.85E-15;2.33E-12;9.15E-10;1.03E-174;9.22E-38;8.43E-32;7.97E-04;1.23E-06;4.95E-12;9.13E-13;6.24E-11;1.66E-17;7.39E-128;7.48E-41;3.96E-42;6.35E-05
60.03328;99.47985;100.373;99.40299;0.003292417;0.000223728;0.000329621;2.44E-05;2.27E-10;2.61E-11;9.87E-13;1.21E-09;5.99E-122;3.78E-33;7.04E-35;1.96E-04;3.66E-06;2.66E-10;6.07E-14;1.07E-11;2.72E-09;2.03E-166;4.21E-36;1.79E-30;3.56E-03;3.65E-06;2.70E-11;4.98E-12;2.23E-10;1.12E-16;2.50E-122;3.41E-39;1.80E-40;5.49E-04
75.31192;99.44223;100.382;99.38701;0.003788851;0.000124568;-6.42245E-05;6.74E-05;1.53E-09;1.76E-10;6.67E-12;4.33E-09;2.59E-115;1.73E-31;3.21E-33;7.65E-03;1.18E-05;1.45E-09;5.39E-13;4.95E-11;8.11E-09;3.99E-158;1.92E-34;3.80E-29;1.43E-02;1.09E-05;1.48E-10;2.72E-11;7.96E-10;7.55E-16;8.47E-117;1.55E-37;8.22E-39;4.35E-03
90.59056;99.40007;100.373;99.38284;-0.000219046;-0.003400807;-0.001618131;1.87E-04;1.03E-08;1.19E-09;4.50E-11;1.55E-08;1.12E-108;7.86E-30;1.46E-31;1.43E-01;3.84E-05;7.94E-09;4.78E-12;2.28E-10;2.42E-08;7.87E-150;8.74E-33;8.07E-28;3.90E-02;3.24E-05;8.06E-10;1.49E-10;2.84E-09;5.10E-15;2.87E-111;7.09E-36;3.75E-37;1.96E-02
105.8692;99.35759;100.407;99.37309;4.48E-03;0.002922828;0.000495703;5.17E-04;6.99E-08;8.02E-09;3.04E-10;5.53E-08;4.82E-102;3.59E-28;6.67E-30;0.185686;1.24E-04;4.34E-08;4.24E-11;1.05E-09;7.20E-08;1.55E-141;3.98E-31;1.71E-26;0.0420701;9.64E-05;4.40E-09;8.12E-10;1.02E-08;3.44E-14;9.70E-106;3.23E-34;1.71E-35;2.34E-02
121.148;99.30246;100.378;99.3703;0.005790732;0.00027769;0.001178224;0.001427406;4.72E-07;5.42E-08;2.05E-09;1.98E-07;2.08E-95;1.63E-26;3.04E-28;0.0190162;4.02E-04;2.37E-07;3.76E-10;4.84E-09;2.14E-07;3.05E-133;1.82E-29;3.64E-25;0.0141518;2.87E-04;2.40E-08;4.43E-09;3.63E-08;2.32E-13;3.28E-100;1.47E-32;7.79E-34;0.006969944
136.426;99.22693;100.364;99.34688;0.005734862;0.002625871;0.003504066;0.003928644;3.18E-06;3.66E-07;1.39E-08;7.06E-07;9.00E-89;7.45E-25;1.39E-26;0.004348642;0.00129881;1.29E-06;3.33E-09;2.23E-08;6.38E-07;6.01E-125;8.28E-28;7.73E-24;0.003733439;0.000852803;1.31E-07;2.42E-08;1.30E-07;1.57E-12;1.11E-94;6.72E-31;3.55E-32;0.001748634
151.705;99.09922;100.311;99.31983;0.0115086;0.007403366;0.0038678;0.010698;2.15E-05;2.47E-06;9.35E-08;2.52E-06;3.89E-82;3.40E-23;6.32E-25;0.0107337;0.004173153;7.06E-06;2.96E-08;1.03E-07;1.90E-06;1.18E-116;3.77E-26;1.64E-22;0.004554006;0.002524638;7.16E-07;1.32E-07;4.63E-07;1.06E-11;3.76E-89;3.06E-29;1.62E-30;0.002629084
166.984;98.80053;100.152;99.22932;0.0369384;0.0181236;0.009524078;0.028318;1.45E-04;1.67E-05;6.32E-07;9.01E-06;1.68E-75;1.55E-21;2.88E-23;0.0284896;0.013174;3.86E-05;2.62E-07;4.74E-07;5.66E-06;2.33E-108;1.72E-24;3.49E-21;0.0132743;0.007387203;3.91E-06;7.22E-07;1.65E-06;7.15E-11;1.27E-83;1.40E-27;7.38E-29;0.007405147
182.2624;97.93978;99.60194;98.98938;0.0854494;0.0563238;0.0302491;0.0698696;9.77E-04;1.13E-04;4.26E-06;3.22E-05;7.25E-69;7.06E-20;1.31E-21;0.0709955;0.0394146;2.11E-04;2.33E-06;2.18E-06;1.69E-05;4.59E-100;7.85E-23;7.41E-20;0.0396548;0.0209094;2.14E-05;3.94E-06;5.91E-06;4.83E-10;4.31E-78;6.36E-26;3.37E-27;0.020942
197.541;96.21228;98.43724;98.358;0.151882;0.108385;0.0517933;0.148182;0.00646588;0.000759142;2.88E-05;1.15E-04;3.13E-62;3.22E-18;5.99E-20;0.155551;0.102025;1.15E-03;2.06E-05;1.01E-05;5.02E-05;9.03E-92;3.58E-21;1.57E-18;0.103254;0.054254;1.17E-04;2.15E-05;2.11E-05;3.26E-09;1.46E-72;2.90E-24;1.53E-25;0.0544134
212.82;92.86213;96.13773;97.14805;0.295267;0.206307;0.11629;0.234047;0.0385251;0.005086715;1.94E-04;4.10E-04;1.35E-55;1.47E-16;2.73E-18;0.278263;0.194581;0.006171974;1.83E-04;4.64E-05;1.50E-04;1.78E-83;1.63E-19;3.34E-17;0.201132;0.116702;6.35E-04;1.18E-04;7.54E-05;2.20E-08;4.94E-67;1.32E-22;6.99E-24;0.11753
228.098;88.07419;92.52752;94.79769;0.31079;0.253326;0.196911;0.132287;0.144138;0.0326683;1.31E-03;1.46E-03;5.85E-49;6.69E-15;1.24E-16;0.311863;0.219061;0.0312152;1.62E-03;2.14E-04;4.45E-04;3.50E-75;7.43E-18;7.09E-16;0.252554;0.188287;0.003417707;6.41E-04;2.69E-04;1.49E-07;1.67E-61;6.03E-21;3.19E-22;0.192615
243.377;82.76423;88.91413;91.42285;0.412719;0.22928;0.2318299;0.0113676;0.21198;0.165887;8.59E-03;5.19E-03;2.53E-42;3.05E-13;5.67E-15;0.403016;0.0957413;0.120361;1.40E-02;9.80E-04;1.32E-03;6.90E-67;3.39E-16;1.51E-14;0.232449;0.209143;0.0173042;3.47E-03;9.58E-04;1.00E-06;5.66E-56;2.75E-19;1.45E-20;0.230875
258.6556;75.31565;84.6607;88.29441;0.57165;0.349363;0.16788;0.000579339;0.0620137;0.418134;4.93E-02;1.81E-02;1.09E-35;1.39E-11;2.59E-13;0.548125;0.0174383;0.221327;1.04E-01;4.44E-03;3.92E-03;1.36E-58;1.54E-14;3.20E-13;0.351161;0.0886779;0.06728167;1.81E-02;3.38E-03;6.78E-06;1.92E-50;1.25E-17;6.63E-19;0.177418
273.934;65.89675;78.18799;85.28315;0.548433;0.509769;0.245164;2.78341E-05;0.003785875;0.301026;1.65E-01;5.95E-02;4.71E-29;6.34E-10;1.18E-11;0.529716;0.002413516;0.100544;0.37471;1.90E-02;1.15E-02;2.67E-50;7.04E-13;6.79E-12;0.508224;0.0103781;0.133399;7.88E-02;1.16E-02;4.58E-05;6.48E-45;5.71E-16;3.02E-17;0.234245
289.213;59.61949;69.52038;80.78759;0.409846;0.579248;0.356612;1.31975E-06;1.81E-04;0.001568038;2.43E-01;1.66E-01;2.03E-22;2.89E-08;5.38E-10;0.410514;0.000318117;0.01151747;0.48276;6.61E-02;3.31E-02;5.27E-42;3.21E-11;1.44E-10;0.593715;0.000852398;0.116727;2.05E-01;3.63E-02;3.09E-04;2.19E-39;2.60E-14;1.38E-15;0.359267
304.492;53.82155;63.37987;74.67032;0.356851;0.262301;0.448073;6.22997E-08;8.53E-06;3.50996E-06;1.31E-02;3.31E-01;8.78E-16;1.32E-06;2.45E-08;0.34386;4.15766E-05;9.40E-04;0.0122175;1.43E-01;8.85E-02;1.04E-33;1.46E-09;3.06E-09;0.244254;6.72478E-05;0.049915;0.289786;8.98E-02;2.08E-03;7.43E-34;1.19E-12;6.28E-14;0.431604
319.77;47.66454;58.44428;67.75056;0.456687;0.368739;0.432163;2.93623E-09;4.02E-07;7.79E-09;3.09E-05;4.58E-01;3.76E-09;6.00E-05;1.12E-06;0.458455;5.42463E-06;7.40E-05;2.7851E-05;1.68E-01;2.02E-01;2.04E-25;6.67E-08;6.51E-08;0.370639;5.27772E-06;0.0134814;0.252459;1.53E-01;1.37E-02;2.51E-28;5.41E-11;2.86E-12;0.432355
335.0488;43.08627;53.50644;62.59217;0.0142768;0.359552;0.29439;1.38E-10;1.89E-08;1.73E-11;6.87E-08;4.86E-03;1.18E-02;2.67E-03;5.09E-05;0.0193809;7.0748E-07;5.80E-06;6.17965E-08;1.10E-04;3.57E-01;4.02E-17;3.04E-06;1.38E-06;0.356737;4.13755E-07;3.09E-03;0.007823366;1.90E-01;7.94E-02;8.51E-23;2.47E-09;1.30E-10;0.279852
350.327;42.17232;47.0833;57.23387;0.0825817;0.457043;0.364928;6.51E-12;8.91E-10;3.83E-14;1.52E-10;3.99477E-08;0.0269026;0.0562031;0.002286753;0.0853925;9.23E-08;4.54E-07;1.37E-10;7.99E-09;4.61E-01;7.86E-09;1.38E-04;2.93E-05;0.461193;3.24268E-08;6.78E-04;4.93767E-05;9.53E-02;2.75E-01;2.88E-17;1.12E-07;5.95E-09;0.370727
365.606;40.64005;43.96713;51.29657;0.114958;0.0514259;0.45007;3.07E-13;4.20E-11;1.27E-16;3.38E-13;3.17352E-13;0.003264346;0.04738591;0.0620554;0.112706;1.20E-08;3.56E-08;3.04E-13;5.71497E-13;0.000976954;0.0501196;0.005855233;0.000620886;0.0575728;2.54E-09;1.47E-04;3.03391E-07;4.04E-04;4.32E-01;9.74E-12;5.13E-06;2.71E-07;0.432694
380.885;38.65588;42.91932;44.59483;0.0825618;0.0841047;0.362682;1.45E-14;1.98E-12;0;7.46E-16;0.00E+00;0.000267282;0.003796059;0.0752046;0.0792679;1.57E-09;2.79E-09;6.22E-16;4.66E-17;7.29412E-08;0.0141361;0.0592298;0.0122525;0.0856185;1.99E-10;3.20E-05;1.86E-09;9.03635E-07;0.401183;3.27E-06;2.33E-04;1.24E-05;0.401465
396.163;38.34067;41.32122;42.54772;0.0191307;0.130839;0.0706062;6.37E-16;9.31E-14;0;0.00E+00;0.00E+00;2.10E-05;1.85E-04;2.00E-05;0.000225701;2.05E-10;2.19E-10;0.00E+00;0.00E+00;5.27914E-12;0.000858356;0.0255963;0.103903;0.130358;1.56E-11;6.95E-06;1.14E-11;2.01E-09;0.000555869;0.0637622;0.009680271;0.000561765;0.0745671
411.442;38.26268;39.80798;41.13936;0;0.002626271;0.117749;0.00E+00;4.35E-15;0;0.00E+00;0.00E+00;1.65E-06;8.71E-06;2.51E-09;1.04E-05;2.67E-11;1.71E-11;0.00E+00;0.00E+00;3.85E-16;4.09772E-05;0.001705466;0.004571285;0.006317728;1.22E-12;1.51E-06;7.03E-14;4.45E-12;1.14822E-07;0.0172899;0.0765784;0.0223212;0.116191
426.721;38.26268;39.6928;39.05167;0;0.006542;0.127038;0.00E+00;1.87E-16;0;0.00E+00;0.00E+00;1.29E-07;4.10E-07;3.13E-13;5.39E-07;3.48E-12;1.34E-12;0.00E+00;0.00E+00;0.00E+00;1.93E-06;8.19E-05;8.80E-08;8.39E-05;9.58E-14;3.27E-07;4.26E-16;9.88E-15;2.36E-11;0.001025314;0.0124268;0.12654;0.139992
441.999;38.26268;39.56209;38.58686;0;0.008274664;0.00519557;0.00E+00;0.00E+00;0;0.00E+00;0.00E+00;1.01E-08;1.93E-08;3.33E-17;2.94E-08;4.54E-13;1.05E-13;0;0.00E+00;0.00E+00;9.09E-08;3.86E-06;1.60E-12;3.95E-06;7.52E-15;7.10E-08;0.00E+00;0.00E+00;4.90E-15;4.89E-05;3.08E-04;7.70E-06;3.65E-04
457.278;38.26268;39.43849;38.50393;0;0.0113002;0.005949197;0.00E+00;0.00E+00;0;0.00E+00;0.00E+00;7.93E-10;9.09244E-10;0;1.70E-09;5.92E-14;8.24E-15;0;0.00E+00;0.00E+00;4.28E-09;1.82E-07;3.66E-17;1.86E-07;5.60E-16;1.54E-08;0.00E+00;0.00E+00;0.00E+00;2.30E-06;6.78E-06;6.07E-11;9.10E-06
472.557;38.26268;39.33083;38.42314;0;0.00755063;0.006893733;0.00E+00;0.00E+00;0;0.00E+00;0.00E+00;6.21E-11;4.28149E-11;0;1.05E-10;7.67E-15;6.22E-16;0;0.00E+00;0.00E+00;2.02E-10;8.55786E-09;0;8.76E-09;6.22E-17;3.34E-09;0.00E+00;0.00E+00;0.00E+00;1.08E-07;1.49E-07;4.91E-16;2.60E-07
487.8352;38.26268;39.21554;38.33635;0;0.0102587;0.007275138;0.00E+00;0.00E+00;0;0.00E+00;0.00E+00;4.87E-12;2.01608E-12;0;6.88E-12;1.04E-15;7.77E-17;0;0.00E+00;0.00E+00;9.49E-12;4.02976E-10;0;4.12E-10;0.00E+00;7.25E-10;0.00E+00;0.00E+00;0.00E+00;5.11E-09;3.26E-09;0.00E+00;9.09E-09
497.384;38.26268;39.14677;38.27651;-0.0769278;-0.0787053;-0.0769556;0;0;0;0;0;9.91076E-13;2.98582E-13;0;1.28966E-12;3.19744E-16;0;0;0;0;1.40598E-12;5.9683E-11;0;6.10893E-11;0;2.79203E-10;0;0;0;7.56288E-10;2.99663E-10;0;1.33515E-09