File: src/TGA/Ho_TGA.csv
#EXPORTTYPE:                 ;DATA COMPARE                                           ;DATA COMPARE                                           ;DATA COMPARE
#FILE:                       ;02.06.23_ Ho_1,5+3_3kmin_30+500_N2-120.ngb-ds5         ;02.06.23_ Ho_1,5+3_5kmin_30+500_N2-120.ngb-ds5         ;01.06.23_ Ho_1,5+3_10kmin_30+500_N2-120.ngb-ds5
#FORMAT:                     ;NETZSCH5                                               ;NETZSCH5                                               ;NETZSCH5
#FTYPE:                      ;ANSI                                                   ;ANSI                                                   ;ANSI
#IDENTITY:                   ;Ho_1,5+3                                               ;Ho_1,5+3                                               ;Ho_1,5+3
#DECIMAL:                    ;COMMA                                                  ;COMMA                                                  ;COMMA
#SEPARATOR:                  ;SEMICOLON                                              ;SEMICOLON                                              ;SEMICOLON
#MTYPE:                      ;TG                                                     ;TG                                                     ;TG
#INSTRUMENT:                 ;NETZSCH STA 449F5                                      ;NETZSCH STA 449F5                                      ;NETZSCH STA 449F5
#PROJECT:                    ;                                                       ;                                                       ;
#DATE/TIME:                  ;02.06.2023 15:33:05 (UTC+3)                            ;02.06.2023 11:56:02 (UTC+3)                            ;01.06.2023 16:25:35 (UTC+3)
#CORR. FILE:                 ;11.05.23_correction for composite-3kmin_30-500Ñ.ngb-bs5;10.05.23_correction for composite-5kmin_30-500Ñ.ngb-bs5;29.04.22_correction for composite-10kmin_30+500_N2-120.ngb-bs5
#TEMPCAL:                    ;3kmin-N2_washer+Al2O3+cover.ngb-ts5                    ;5kmin-N2_washer+Al2O3+cover.ngb-ts5                    ;10kmin-N2_washer+Al2O3+cover.ngb-ts5
#SENSITIVITY:                ;3kmin-N2_washer+Al2O3+cover.ngb-es5                    ;5kmin-N2_washer+Al2O3+cover.ngb-es5                    ;10kmin-N2_washer+Al2O3+cover.ngb-ts5.ngb-es5
#LABORATORY:                 ;                                                       ;                                                       ;
#OPERATOR:                   ;                                                       ;                                                       ;
#REMARK:                     ;                                                       ;                                                       ;
#SAMPLE:                     ;1                                                      ;1                                                      ;1
#SAMPLE MASS /mg:            ;19,8500                                                ;24,5625                                                ;17,6635
#MATERIAL:                   ;                                                       ;                                                       ;
#REFERENCE:                  ;                                                       ;                                                       ;
#REFERENCE MASS /mg:         ;0                                                      ;0                                                      ;0
#TYPE OF CRUCIBLE:           ;DSC/TG pan Al2O3                                       ;DSC/TG pan Al2O3                                       ;DSC/TG pan Al2O3
#SAMPLE CRUCIBLE MASS /mg:   ;0                                                      ;0                                                      ;0
#REFERENCE CRUCIBLE MASS /mg:;0                                                      ;0                                                      ;0
#DSC RANGE /µV:              ;5000                                                   ;5000                                                   ;5000
#TG RANGE /mg:               ;35000                                                  ;35000                                                  ;35000
#TAU-R:                      ;---                                                    ;---                                                    ;---
#CORR. CODE:                 ;020                                                    ;020                                                    ;020
#EXO:                        ;+1                                                     ;+1                                                     ;+1
#RANGE:                      ;30°C/3,0(K/min)/500°C                                  ;30°C/5,0(K/min)/500°C                                  ;30°C/10,0(K/min)/500°C
#SEGMENT:                    ;S1/1                                                   ;S1/1                                                   ;S1/1
#SEG. 1:                     ;30°C/3,0(K/min)/500°C                                  ;30°C/5,0(K/min)/500°C                                  ;30°C/10,0(K/min)/500°C

##Temp./°C;Mass/%;Mass/%;Mass/%
 30,06900;100,00000;100,00000;100,00000
 31,97883; 99,50781;100,41960; 99,43623
 33,88866; 99,55707;100,42219; 99,43150
 35,79849; 99,52380;100,42178; 99,46726
 37,70832; 99,54967;100,42653; 99,47536
 39,61815; 99,54592;100,43985; 99,48684
 41,52798; 99,55970;100,43479; 99,49940
 43,43781; 99,55868;100,43707; 99,50121
 45,34764; 99,55771;100,44633; 99,50285
 47,25747; 99,56373;100,45349; 99,53035
 49,16730; 99,57985;100,46496; 99,52362
 51,07713; 99,58438;100,45070; 99,53192
 52,98696; 99,57583;100,45679; 99,54110
 54,89679; 99,59928;100,46697; 99,53341
 56,80662; 99,59800;100,46970; 99,54899
 58,71645; 99,58640;100,46412; 99,55164
 60,62628; 99,60454;100,45714; 99,54369
 62,53611; 99,61411;100,45987; 99,55442
 64,44594; 99,61814;100,45720; 99,55161
 66,35577; 99,61108;100,45883; 99,54838
 68,26560; 99,61008;100,46005; 99,53800
 70,17543; 99,60806;100,46779; 99,54206
 72,08526; 99,63176;100,46941; 99,54921
 73,99509; 99,62670;100,46534; 99,54197
 75,90492; 99,62116;100,46421; 99,54653
 77,81475; 99,62065;100,45476; 99,55833
 79,72458; 99,62927;100,45972; 99,56318
 81,63441; 99,62771;100,45557; 99,55446
 83,54424; 99,61556;100,45879; 99,55733
 85,45407; 99,61763;100,45639; 99,55884
 87,36390; 99,62671;100,46186; 99,55465
 89,27373; 99,61776;100,45500; 99,55385
 91,18356; 99,62669;100,46901; 99,55163
 93,09339; 99,63275;100,47797; 99,56268
 95,00322; 99,63890;100,51090; 99,57540
 96,91305; 99,64585;100,55352; 99,55053
 98,82288; 99,65693;100,56491; 99,54990
100,73271; 99,66147;100,32174; 99,55375
102,64254; 99,66196;100,32122; 99,55727
104,55237; 99,66139;100,34729; 99,55205
106,46220; 99,65491;100,37209; 99,55558
108,37203; 99,64786;100,38770; 99,54822
110,28186; 99,64685;100,38503; 99,54526
112,19169; 99,64282;100,39370; 99,54935
114,10152; 99,63980;100,41150; 99,55531
116,01135; 99,64433;100,43687; 99,55728
117,92118; 99,64893;100,40470; 99,55106
119,83101; 99,65139;100,36526; 99,54709
121,74084; 99,65239;100,35990; 99,55680
123,65067; 99,65088;100,35949; 99,56467
125,56050; 99,63980;100,36112; 99,56577
127,47033; 99,63526;100,36193; 99,56101
129,38016; 99,63526;100,36806; 99,55200
131,28999; 99,62620;100,37373; 99,54709
133,19982; 99,60885;100,37539; 99,54709
135,10965; 99,58229;100,36193; 99,54145
137,01948; 99,56675;100,35795; 99,52501
138,92931; 99,56829;100,35216; 99,52667
140,83914; 99,55466;100,34615; 99,54314
142,74897; 99,53810;100,33751; 99,55501
144,65880; 99,52443;100,32806; 99,55558
146,56863; 99,52937;100,31602; 99,54539
148,47846; 99,50881;100,30290; 99,54198
150,38829; 99,49673;100,27618; 99,52784
152,29812; 99,49223;100,26788; 99,52219
154,20795; 99,46195;100,28458; 99,51761
156,11778; 99,46096;100,28586; 99,51029
158,02761; 99,44887;100,26626; 99,49953
159,93744; 99,43035;100,24202; 99,48592
161,84727; 99,40654;100,21859; 99,47972
163,75710; 99,37078;100,20521; 99,47633
165,66693; 99,34710;100,17914; 99,46841
167,57676; 99,31750;100,16204; 99,45698
169,48659; 99,30677;100,13798; 99,45028
171,39642; 99,28111;100,12458; 99,44858
173,30625; 99,26394;100,10358; 99,43684
175,21608; 99,23678;100,07043; 99,41528
177,12591; 99,19226;100,04053; 99,38620
179,03574; 99,14694;100,00549; 99,36588
180,94557; 99,09269; 99,97313; 99,35715
182,85540; 99,05040; 99,95759; 99,33656
184,76523; 99,00128; 99,92063; 99,30801
186,67506; 98,95262; 99,88116; 99,29572
188,58489; 98,88164; 99,84775; 99,28893
190,49472; 98,80635; 99,81856; 99,26337
192,40455; 98,72516; 99,76151; 99,23751
194,31438; 98,62284; 99,71883; 99,21079
196,22421; 98,52916; 99,66288; 99,19339
198,13404; 98,38143; 99,60226; 99,16213
200,04387; 98,23394; 99,52208; 99,12191
201,95370; 98,07534; 99,44311; 99,07324
203,86353; 97,88401; 99,34312; 99,02229
205,77336; 97,66643; 99,23945; 98,95971
207,68319; 97,45718; 99,11909; 98,89892
209,59302; 97,21190; 98,98992; 98,83038
211,50285; 96,89686; 98,82413; 98,74254
213,41268; 96,59331; 98,63962; 98,64121
215,32251; 96,25031; 98,46427; 98,55053
217,23234; 95,88489; 98,24042; 98,41931
219,14217; 95,46783; 97,99319; 98,25854
221,05200; 95,05434; 97,73425; 98,08973
222,96183; 94,56927; 97,43879; 97,92494
224,87166; 94,07663; 97,12270; 97,71780
226,78149; 93,53408; 96,77475; 97,50701
228,69132; 92,99519; 96,43359; 97,27225
230,60115; 92,42355; 96,02720; 97,00664
232,51098; 91,83384; 95,62491; 96,70199
234,42081; 91,21144; 95,18133; 96,40097
236,33064; 90,59088; 94,71677; 96,11978
238,24047; 89,93292; 94,18712; 95,72727
240,15030; 89,29232; 93,69620; 95,32954
242,06013; 88,63669; 93,15934; 94,94251
243,96996; 87,97112; 92,62339; 94,52901
245,87979; 87,30221; 92,08704; 94,10090
247,78962; 86,62490; 91,54800; 93,65400
249,69945; 85,91430; 91,00385; 93,20031
251,60928; 85,21217; 90,44989; 92,71680
253,51911; 84,34779; 89,82834; 92,22703
255,42894; 83,55507; 89,14215; 91,71388
257,33877; 82,65822; 88,39080; 91,21543
259,24860; 81,75177; 87,58331; 90,71652
261,15843; 80,74745; 86,69476; 90,20430
263,06826; 79,67180; 85,74609; 89,69375
264,97809; 78,56018; 84,74149; 89,19428
266,88792; 77,37916; 83,67162; 88,68851
268,79775; 76,13652; 82,56329; 88,17552
270,70758; 74,84018; 81,40581; 87,63417
272,61741; 73,47154; 80,19796; 87,12332
274,52724; 72,06350; 78,93014; 86,57008
276,43707; 70,60068; 77,63960; 85,98060
278,34690; 69,12003; 76,27105; 85,36968
280,25673; 67,64340; 74,89210; 84,72286
282,16656; 66,22075; 73,50233; 84,03048
284,07639; 64,89206; 72,10359; 83,31491
285,98622; 63,91438; 70,71997; 82,56414
287,89605; 63,48453; 69,38562; 81,75266
289,80588; 63,16434; 68,05864; 80,88568
291,71571; 62,80135; 66,80852; 80,00341
293,62554; 62,39923; 65,67054; 79,06356
295,53537; 61,97383; 64,70573; 78,10182
297,44520; 61,52734; 63,98305; 77,08293
299,35503; 61,07428; 63,59270; 76,03904
301,26486; 60,53234; 63,28756; 74,95692
303,17469; 60,00407; 63,00530; 73,83548
305,08452; 59,43020; 62,70152; 72,70895
306,99435; 58,85050; 62,37252; 71,59596
308,90418; 58,21654; 61,99695; 70,47026
310,81401; 57,55740; 61,60702; 69,35577
312,72384; 56,85614; 61,18641; 68,25560
314,63367; 56,07931; 60,72794; 67,21023
316,54350; 55,30679; 60,28516; 66,25161
318,45333; 54,48960; 59,79549; 65,32618
320,36316; 53,60167; 59,28553; 64,55397
322,27299; 52,69376; 58,75264; 63,92220
324,18282; 51,79787; 58,18619; 63,51079
326,09265; 50,75949; 57,60767; 63,18642
328,00248; 49,71711; 57,00338; 62,79802
329,91231; 48,63057; 56,35983; 62,40662
331,82214; 47,51673; 55,70917; 61,97923
333,73197; 46,40456; 54,98852; 61,52618
335,64180; 45,30148; 54,25109; 61,03802
337,55163; 44,34588; 53,48169; 60,52164
339,46146; 44,01360; 52,68028; 59,98063
341,37129; 43,94596; 51,83741; 59,39756
343,28112; 43,84864; 50,97517; 58,79672
345,19095; 43,74304; 50,09179; 58,18477
347,10078; 43,63185; 49,19026; 57,52417
349,01061; 43,49803; 48,26797; 56,83242
350,92044; 43,36815; 47,34792; 56,08404
352,83027; 43,23767; 46,44725; 55,35966
354,74010; 43,06431; 45,59483; 54,53192
356,64993; 42,88541; 44,86362; 53,73686
358,55976; 42,70119; 44,45396; 52,86725
360,46959; 42,52104; 44,38544; 52,01525
362,37942; 42,32023; 44,29520; 51,12398
364,28925; 42,12130; 44,18506; 50,21209
366,19908; 41,88665; 44,05460; 49,29981
368,10891; 41,66089; 43,90431; 48,38646
370,01874; 41,40339; 43,75452; 47,47089
371,92857; 41,12525; 43,59504; 46,60791
373,83840; 40,86622; 43,40860; 45,79851
375,74823; 40,58433; 43,22602; 45,04630
377,65806; 40,28102; 43,02393; 44,44409
379,56789; 40,01428; 42,81924; 44,13691
381,47772; 39,85063; 42,59738; 44,07234
383,38755; 39,80502; 42,37615; 43,99508
385,29738; 39,79395; 42,14286; 43,85527
387,20721; 39,78288; 41,88460; 43,67060
389,11704; 39,77380; 41,63111; 43,48275
391,02687; 39,74110; 41,37546; 43,33156
392,93670; 39,73602; 41,10730; 43,14952
394,84653; 39,72544; 40,82998; 42,93690
396,75636; 39,70579; 40,55257; 42,71064
398,66619; 39,70579; 40,32204; 42,48764
400,57602; 39,69367; 40,24147; 42,25486
402,48585; 39,67809; 40,21618; 42,01071
404,39568; 39,67237; 40,21130; 41,75557
406,30551; 39,66497; 40,19380; 41,47486
408,21534; 39,65743; 40,18524; 41,21638
410,12517; 39,64733; 40,16540; 40,93951
412,03500; 39,62720; 40,14648; 40,63804
413,94483; 39,62067; 40,12603; 40,38754
415,85466; 39,60856; 40,10707; 40,18154
417,76449; 39,58841; 40,08624; 40,12943
419,67432; 39,58389; 40,06656; 40,11775
421,58415; 39,56692; 40,05496; 40,09515
423,49398; 39,55668; 40,02606; 40,08096
425,40381; 39,54710; 40,02117; 40,06575
427,31364; 39,54358; 40,01067; 40,05381
429,22347; 39,53309; 40,00491; 40,05152
431,13330; 39,51259; 39,98087; 40,06058
433,04313; 39,49471; 39,96792; 40,07020
434,95296; 39,49118; 39,95603; 40,05224
436,86279; 39,47305; 39,93681; 40,03963
438,77262; 39,46032; 39,92633; 40,03114
440,68245; 39,43678; 39,90799; 40,02378
442,59228; 39,42569; 39,90758; 40,01139
444,50211; 39,42368; 39,88967; 40,00792
446,41194; 39,41108; 39,88733; 39,98984
448,32177; 39,41008; 39,86807; 39,98358
450,23160; 39,39144; 39,85058; 39,98641
452,14143; 39,39094; 39,84570; 39,98817
454,05126; 39,38338; 39,83328; 39,98947
455,96109; 39,48413; 39,82697; 39,97705
457,87092; 39,43967; 39,80051; 39,97112
459,78075; 39,41154; 39,79603; 39,96887
461,69058; 39,37337; 39,78750; 39,96320
463,60041; 39,33997; 39,78466; 39,95131
465,51024; 39,31235; 39,77243; 39,93885
467,42007; 39,31033; 39,75816; 39,93436
469,32990; 39,28715; 39,75081; 39,94678
471,23973; 39,25995; 39,74107; 39,93488
473,14956; 39,23980; 39,73618; 39,92980
475,05939; 39,23473; 39,72270; 39,92980
476,96922; 39,22469; 39,70484; 39,92980
478,87905; 39,20350; 39,69263; 39,93091
480,78888; 39,18690; 39,67634; 39,92878
482,69871; 39,17481; 39,67674; 39,93887
484,60854; 39,15647; 39,66366; 39,93376
486,51837; 39,14660; 39,64743; 39,92583
488,42820; 39,15315; 39,62960; 39,92414
490,33803; 39,13222; 39,60753; 39,92358
492,24786; 39,12731; 39,59410; 39,91907
494,15769; 39,10731; 39,59247; 39,91410
496,06752; 39,11595; 39,58392; 39,90602
497,97735; 39,09472; 39,57415; 39,90602