File: src/TGA/NH4Cl_TGA.csv
temperature,rate_3,rate_5,rate_10,rate_3_diff,rate_5_diff,rate_10_diff,rate_3_diff_reaction_0,rate_3_diff_reaction_1,rate_3_diff_reaction_2,rate_3_diff_reaction_3,rate_3_diff_cumulative,rate_5_diff_reaction_0,rate_5_diff_reaction_1,rate_5_diff_reaction_2,rate_5_diff_reaction_3,rate_5_diff_cumulative,rate_10_diff_reaction_0,rate_10_diff_reaction_1,rate_10_diff_reaction_2,rate_10_diff_reaction_3,rate_10_diff_cumulative
30.278,100,100,100,0.561519,-0.502759,0.394697,2.96E-06,6.45E-12,3.74E-95,2.09E-30,2.96E-06,5.24E-07,9.72E-11,3.39E-118,2.40E-35,5.24E-07,7.86E-07,4.40E-10,2.72E-154,1.17E-25,7.87E-07
40.78206,99.4777,100.495,99.68779,0.001691265,0.006272857,-0.001544632,5.30E-06,1.84E-11,6.78E-92,1.79E-29,5.30E-06,9.72E-07,2.33E-10,2.15E-114,2.47E-34,9.72E-07,1.37E-06,9.31E-10,9.92E-150,5.26E-25,1.37E-06
51.28613,99.49132,100.513,99.70094,0.003382531,-0.000209423,0.004345922,9.50E-06,5.27E-11,1.23E-88,1.52E-28,9.50E-06,1.80E-06,5.60E-10,1.36E-110,2.55E-33,1.80E-06,2.38E-06,1.97E-09,3.62E-145,2.36E-24,2.38E-06
61.79019,99.51169,100.512,99.7027,-0.000958193,0.000607378,-0.004325,1.70E-05,1.51E-10,2.23E-85,1.30E-27,1.70E-05,3.34E-06,1.34E-09,8.60E-107,2.64E-32,3.35E-06,4.13E-06,4.18E-09,1.32E-140,1.06E-23,4.13E-06
72.29426,99.51441,100.5029,99.69231,-0.005723033,0.003408667,0.000664968,3.05E-05,4.31E-10,4.04E-82,1.11E-26,3.05E-05,6.20E-06,3.22E-09,5.45E-103,2.72E-31,6.20813E-06,7.18E-06,8.84E-09,4.81E-136,4.74E-23,7.18E-06
82.79832,99.51935,100.503,99.70477,0.0111895,-0.004146963,-0.003481974,5.47E-05,1.23E-09,7.33E-79,9.46E-26,5.47179E-05,1.15E-05,7.74E-09,3.45E-99,2.81E-30,1.15177E-05,1.25E-05,1.87E-08,1.75E-131,2.13E-22,1.25E-05
93.30239,99.53496,100.506,99.72825,-0.001434675,-0.002157287,-0.000853475,9.81E-05,3.52E-09,1.33E-75,8.07E-25,9.80704E-05,2.14E-05,1.86E-08,2.18E-95,2.90E-29,2.13692E-05,2.17E-05,3.96E-08,6.40E-127,9.54E-22,2.17E-05
103.806,99.53633,100.52,99.72072,3.66648E-05,-0.00296884,-0.001979239,1.76E-04,1.01E-08,2.41E-72,6.88E-24,0.000175761,3.96E-05,4.46E-08,1.38E-91,2.99E-28,3.96485E-05,3.77E-05,8.40E-08,2.33E-122,4.28E-21,3.78E-05
114.311,99.53405,100.5086,99.72239,-0.00143469,0.003199235,0.001167644,0.00031494,2.88E-08,4.37E-69,5.87E-23,0.000314968,7.35E-05,1.07E-07,8.76E-88,3.09E-27,7.35674E-05,6.55E-05,1.78E-07,8.50E-118,1.92E-20,6.57E-05
124.815,99.50984,100.495,99.73244,0.006456103,0.001827388,-1.57104E-05,0.000564248,8.23E-08,7.93E-66,5.01E-22,0.00056433,0.000136252,2.57E-07,5.55E-84,3.19E-26,0.000136508,1.14E-04,3.76E-07,3.10E-113,8.60E-20,0.000114206
135.319,99.50253,100.474,99.72786,0.004324992,0.002529008,0.002879849,0.001010555,2.35E-07,1.44E-62,4.27E-21,0.001010791,0.000252688,6.16E-07,3.51E-80,3.29E-25,0.000253303,0.000197821,7.97E-07,1.13E-108,3.86E-19,0.000198619
145.823,99.49946,100.462,99.73746,-0.003586719,0,0.003550043,0.001808739,6.73E-07,2.61E-59,3.65E-20,0.001809412,0.000468529,1.48E-06,2.22E-76,3.40E-24,0.000470007,0.000343745,1.69E-06,4.12E-104,1.73E-18,0.000345433
156.327,99.47329,100.443,99.73362,0.007414276,0.00137185,0.001094339,0.00323372,1.92E-06,4.73E-56,3.11E-19,0.003235643,0.000868414,3.55E-06,1.41E-72,3.51E-23,0.000871959,0.000597172,3.58E-06,1.50E-99,7.76E-18,0.000600747
166.831,99.41025,100.401,99.72825,0.008906568,0.006597457,0,0.005769739,5.50E-06,8.57E-53,2.65E-18,0.005775236,0.001608472,8.51E-06,8.92E-69,3.62E-22,0.00161698,0.001037027,7.57E-06,5.48E-95,3.48E-17,0.001044597
177.335,99.31935,100.34,99.7086,0.0178707,0.005267483,0.005455984,0.010258,1.57E-05,1.55E-49,2.26E-17,0.0102737,0.002975369,2.04E-05,5.65E-65,3.73E-21,0.002995786,0.001799621,1.60E-05,2.00E-90,1.56E-16,0.001815653
187.839,99.14296,100.256,99.68385,0.0276726,0.009341144,0.00308404,0.0181234,4.49232E-05,2.82E-46,1.93E-16,0.01816831,0.00549081,4.90E-05,3.58E-61,3.85E-20,0.005539803,0.003119269,3.39E-05,7.29E-86,6.99E-16,0.003153219
198.343,98.85343,100.082,99.62072,0.0340135,0.0160695,0.007450941,0.0316722,0.000128422,5.11E-43,1.65E-15,0.0318007,0.01008881,1.18E-04,2.26E-57,3.98E-19,0.0102064,0.005395456,7.19E-05,2.66E-81,3.14E-15,0.005467347
208.8471,98.39049,99.82877,99.51034,0.0519837,0.0313483,0.01382322,0.0543343,0.000367091,9.26741E-40,1.41E-14,0.0547014,0.01839101,2.82E-04,1.43E-53,4.11E-18,0.0186731,0.00929953,1.52E-04,9.69E-77,1.41E-14,0.009451761
219.351,97.63777,99.42538,99.35267,0.0969406,0.048397,0.01941536,0.0904353,0.001049091,1.68046E-36,1.20E-13,0.0914844,0.0330546,6.77E-04,9.07736E-50,4.24E-17,0.03373142,0.0159317,0.000322334,3.53E-72,6.31E-14,0.016254
229.855,96.45885,98.77218,99.06977,0.127498,0.0767136,0.0278873,0.143701,0.002996267,3.04718E-33,1.02E-12,0.146697,0.0579727,0.001623253,5.74785E-46,4.37E-16,0.0595959,0.0270163,0.000682436,1.28824E-67,2.83E-13,0.0276987
240.3593,94.65722,97.76053,98.61215,0.205044,0.114193,0.0562668,0.214007,0.008542277,5.52546E-30,8.72E-12,0.222549,0.0976601,0.003890602,3.63961E-42,4.52E-15,0.101551,0.04504801,0.001444497,4.69738E-63,1.27E-12,0.0464925
250.863,91.96754,96.24748,97.90818,0.310033,0.167266,0.08144702,0.294176,0.0242308,1.00193E-26,7.44E-11,0.318407,0.154781,0.009309261,2.30463E-38,4.66E-14,0.16409,0.073128,0.003056018,1.71282E-58,5.69E-12,0.076184
261.367,88.05363,94.07132,96.85458,0.456271,0.265532,0.0998309,0.3708619,0.067764,1.8168E-23,6.35E-10,0.438626,0.226046,0.0221856,1.45932E-34,4.81E-13,0.248231,0.114015,0.006458645,6.24555E-54,2.55E-11,0.120474
271.871,82.37462,90.83495,95.31158,0.633852,0.358079,0.183226,0.428391,0.18238,3.29439E-20,5.42E-09,0.610771,0.300597,0.0523733,9.24054E-31,4.96E-12,0.35297,0.168081,0.0136198,2.27733E-49,1.14E-10,0.181701
282.376,74.47291,86.33202,93.10613,0.894231,0.509873,0.243969,0.44298,4.47E-01,5.97E-17,4.62E-08,0.889601,0.365149,0.120963,5.85123E-27,5.12E-11,0.486112,0.231136,0.0285884,8.30397E-45,5.13E-10,0.259725
292.88,63.49081,80.05076,89.93223,1.20401,0.699675,0.354246,0.363416,9.06E-01,1.08E-13,3.94E-07,1.26897,0.410616,2.66E-01,3.70504E-23,5.29E-10,0.676908,0.294739,0.0594352,3.0279E-40,2.30E-09,0.354174
303.384,48.86554,71.44114,85.53309,1.64133,0.945959,0.480729,0.186017,1.41E+00,1.96E-10,3.36E-06,1.59972,0.429065,5.33E-01,2.35E-19,5.46E-09,0.962353,0.350088,0.121181,1.10408E-35,1.03E-08,0.471269
313.888,30.63379,59.92364,79.50309,1.85555,1.19206,0.664279,0.0580706,1.76E+00,3.55E-07,2.87E-05,1.81702,0.3952247,9.16E-01,1.49E-15,5.63E-08,1.31125,0.391914,2.38E-01,4.02583E-31,4.62E-08,0.629797
324.392,11.90624,45.34107,71.4201,1.49392,1.58635,0.860951,1.43E-02,1.25E+00,0.000636345,2.44E-04,1.26052,2.65E-01,1.31E+00,9.41E-12,5.82E-07,1.5723,0.417255,4.36E-01,1.47E-26,2.07E-07,0.85356
334.896,7.38008,27.70916,61.05362,0.133499,1.72786,1.21566,3.27E-03,1.00E-04,0.124792,2.06E-03,0.130229,1.06E-01,1.59E+00,5.95E-08,6.00E-06,1.69522,0.413054,7.20E-01,5.35E-22,9.30E-07,1.1329
345.4,5.92218,10.68219,48.16242,0.146563,1.14033,1.28117,7.36E-04,2.78E-09,1.17E-01,1.63E-02,0.133885,2.86E-02,9.17E-01,0.000374377,6.19E-05,0.946194,0.32516,1.04E+00,1.95E-17,4.17E-06,1.36374
355.904,4.40655,8.73911,33.44634,0.1444,0.117822,1.456,1.65E-04,7.67E-14,6.32E-02,8.44E-02,0.147823,6.71E-03,5.52E-05,0.128728,0.00063714,0.136133,0.140937,1.31E+00,7.12E-13,1.87E-05,1.45408
366.408,2.55949,7.33906,17.8699,0.19685,0.152034,1.43863,3.68E-05,0.00E+00,1.91E-02,1.66E-01,0.18485,1.52E-03,1.54E-09,1.21E-01,6.35E-03,0.128824,3.31E-02,1.48E+00,2.59E-08,8.38E-05,1.5082
376.912,0.55927,5.89126,8.88475,0.184765,0.132829,-0.003068343,8.20E-06,0.00E+00,4.23E-03,0.183708,0.187951,3.39E-04,4.27611E-14,7.34E-02,4.86E-02,0.122324,6.13E-03,8.07E-02,9.35E-04,0.000374983,0.0881159
387.416,-0.222,4.29241,8.43962,-0.004403521,0.1688,0.0870968,1.83E-06,0.00E+00,0.000861071,3.09E-04,0.00117239,7.58E-05,0,2.25E-02,1.36E-01,0.158812,1.08E-03,8.00E-05,9.21E-02,1.67E-03,0.0949623
397.92,-0.26084,2.50062,7.45342,0.002392851,0.169889,0.100098,4.08E-07,0.00E+00,0.000171888,8.52E-09,0.000172304,1.69E-05,0,4.51E-03,1.63E-01,0.167737,1.88E-04,7.40E-08,9.03E-02,7.17E-03,0.0976605
408.424,-0.275,0.95683,6.3689,0.004063215,0.111869,0.115466,9.10E-08,0,3.41841E-05,2.34E-13,3.43E-05,3.77E-06,0,0.000803986,9.40E-02,0.0947817,3.27E-05,6.78E-11,8.20E-02,2.72E-02,0.10927
418.9284,-0.28898,0.56234,5.0705,0.003822336,0,0.12842,2.03E-08,0,6.7933E-06,0.00E+00,6.81E-06,8.41E-07,0,0.000140283,3.13E-03,0.003266791,5.69E-06,6.20E-14,5.81E-02,7.23E-02,0.130457
429.432,-0.32959,0.56103,3.5419,0.007655095,0.001597028,0.13042,4.53E-09,0,1.34981E-06,0.00E+00,1.35E-06,1.88E-07,0,2.43812E-05,4.77E-05,7.22E-05,9.88E-07,0,2.52E-02,1.15E-01,0.139892
439.937,-0.33073,0.54486,2.03975,0.001298544,0.00022515,0.139049,1.01E-09,0,2.68196E-07,0.00E+00,2.69E-07,4.18E-08,0,4.23456E-06,7.14E-07,4.99E-06,1.72E-07,0,7.11E-03,1.30E-01,1.37E-01
450.4406,-0.33667,0.53044,0.76357,0.001853568,-0.001853585,0.100323,2.25E-10,0,5.32878E-08,0.00E+00,5.35E-08,9.32E-09,0,7.35375E-07,1.07E-08,7.55E-07,2.98E-08,0,0.001686714,8.30E-02,8.47E-02
460.945,-0.34261,0.537,0.22485,0.003351086,-0.004115521,0.006864496,5.02E-11,0,1.05878E-08,0.00E+00,1.06E-08,2.08E-09,0,1.27703E-07,1.60E-10,1.30E-07,5.18E-09,0,0.000381515,6.14E-03,6.52E-03
471.449,-0.35175,0.54967,0.22653,0.001434678,0.003434845,0,1.12E-11,0,2.10368E-09,0.00E+00,2.11E-09,4.64E-10,0,2.21765E-08,2.40E-12,2.26E-08,8.99E-10,0,8.535E-05,1.94E-04,2.79E-04
481.953,-0.35261,0.55666,0.23048,0.007173428,-0.005031883,-0.004382576,2.50E-12,0,4.1798E-10,0.00E+00,4.20E-10,1.03E-10,0,3.85108E-09,3.59E-14,3.95E-09,1.56E-10,0,1.90467E-05,5.85E-06,2.49E-05
492.457,-0.35723,0.55014,0.25251,-0.004068431,-0.00389039,-0.00065451,5.57E-13,0,8.30483E-11,0.00E+00,8.36E-11,2.31E-11,0,6.68764E-10,5.25E-16,6.92E-10,2.71E-11,0,4.2481E-06,1.77E-07,4.42E-06
498.186,-0.36151,0.54093,0.25039,0.009749508,-0.000911071,0,2.46E-13,0,3.43968E-11,0.00E+00,3.46E-11,1.02E-11,0,2.5737E-10,3.75E-17,2.68E-10,1.04E-11,0,1.87386E-06,2.62E-08,1.90E-06