File: src/TGA/Tb_TGA.csv
temperature,rate_3,rate_5,rate_10,rate_3_diff,rate_5_diff,rate_10_diff,rate_3_diff_reaction_0,rate_3_diff_reaction_1,rate_3_diff_reaction_2,rate_3_diff_reaction_3,rate_3_diff_reaction_4,rate_3_diff_reaction_5,rate_3_diff_cumulative,rate_5_diff_reaction_0,rate_5_diff_reaction_1,rate_5_diff_reaction_2,rate_5_diff_reaction_3,rate_5_diff_reaction_4,rate_5_diff_reaction_5,rate_5_diff_cumulative,rate_10_diff_reaction_0,rate_10_diff_reaction_1,rate_10_diff_reaction_2,rate_10_diff_reaction_3,rate_10_diff_reaction_4,rate_10_diff_reaction_5,rate_10_diff_cumulative
30.586,100,100,100,0,0,0,3.25E-06,1.86E-13,4.03E-08,3.91E-270,1.96E-25,1.26E-31,3.29E-06,1.58E-06,2.09E-14,3.23E-17,7.54E-292,4.47E-32,2.52E-28,1.58E-06,6.98E-07,5.96E-13,2.09E-28,9.38E-174,9.95E-34,1.03E-43,6.98E-07
42.9999,99.35701,100.352,99.47056,-0.000218738,-0.000566073,-0.003295446,6.47E-06,8.79E-13,8.36E-08,2.37E-259,1.55E-24,1.51E-30,6.55E-06,3.16E-06,9.85E-14,1.52E-16,4.57E-281,5.35E-31,1.99E-27,3.16E-06,1.39E-06,2.20E-12,2.50E-27,9.18E-168,1.19E-32,2.30E-42,1.39E-06
55.41379,99.38529,100.365,99.47915,-0.001926047,-0.00173397,-0.00111825,1.29E-05,4.15E-12,1.74E-07,1.44E-248,1.23E-23,1.81E-29,1.31E-05,6.29E-06,4.65E-13,7.19E-16,2.77E-270,6.41E-30,1.58E-26,6.29E-06,2.77E-06,8.14E-12,2.99E-26,8.97E-162,1.43E-31,5.11E-41,2.77E-06
67.82769,99.39667,100.361,99.48596,-0.002114192,-0.000948055,0.000815644,2.57E-05,1.96E-11,3.60E-07,8.71E-238,9.71E-23,2.16E-28,2.61E-05,1.25E-05,2.19E-12,3.3957E-15,1.68E-259,7.67E-29,1.25E-25,1.25347E-05,5.53E-06,3.01E-11,3.58E-25,8.78E-156,1.71E-30,1.14E-39,5.53E-06
80.24158,99.38741,100.362,99.48837,-3.69739E-05,0.001019604,0.000158106,5.12E-05,9.24E-11,7.47532E-07,5.28E-227,7.68E-22,2.59E-27,5.19742E-05,2.50E-05,1.04E-11,1.60265E-14,1.02E-248,9.19E-28,9.89E-25,2.49815E-05,1.10E-05,1.11E-10,4.29E-24,8.58E-150,2.05E-29,2.54E-38,1.10E-05
92.65548,99.36117,100.367,99.45978,0.000515997,-0.002371168,0.000776407,1.02E-04,4.36E-10,1.55154E-06,3.20E-216,6.08E-21,3.10E-26,0.00010364,4.98E-05,4.89E-11,7.56399E-14,6.17E-238,1.10E-26,7.83E-24,4.9786E-05,2.20E-05,4.10E-10,5.14E-23,8.39E-144,2.45E-28,5.65E-37,2.20E-05
105.069,99.36903,100.379,99.44381,-0.00027023,-0.001237604,0.002311269,2.03E-04,2.06E-09,3.22031E-06,1.94E-205,4.82E-20,3.72E-25,0.000206656,9.92E-05,2.31E-10,3.56995E-13,3.74E-227,1.32E-25,6.20E-23,9.92133E-05,4.38E-05,1.52E-09,6.15E-22,8.21E-138,2.93E-27,1.26E-35,4.38E-05
117.483,99.36274,100.36,99.43654,-0.004711525,0.001649256,0.000479087,0.000405321,9.71E-09,6.68391E-06,1.18E-194,3.81E-19,4.45E-24,0.000412015,1.98E-04,1.09E-09,1.68489E-12,2.27E-216,1.58E-24,4.91E-22,0.000197688,8.72E-05,5.60E-09,7.37E-21,8.03E-132,3.51E-26,2.80E-34,8.72E-05
129.897,99.31134,100.349,99.41909,0.002431661,0.000807307,-0.000823564,0.000807305,4.58E-08,1.38727E-05,7.12E-184,3.02E-18,5.33E-23,0.000821224,0.000393805,5.14E-09,7.95212E-12,1.37E-205,1.89E-23,3.88E-21,0.00039381,1.74E-04,2.07E-08,8.82164E-20,7.85E-126,4.21E-25,6.25E-33,0.00017376
142.311,99.27669,100.324,99.41524,0.002233433,0.000687059,-0.00046341,0.001606946,2.16E-07,2.87931E-05,4.32E-173,2.39E-17,6.38E-22,0.001635955,0.000784102,2.43E-08,3.75313E-11,8.33E-195,2.26E-22,3.07E-20,0.000784126,0.000346085,7.64E-08,1.05635E-18,7.68E-120,5.04E-24,1.39E-31,0.000346162
154.725,99.24316,100.292,99.40992,0.005292895,0.003345085,0.003910786,0.003194605,1.02E-06,5.97598E-05,2.62E-162,1.89E-16,7.64E-21,0.003255386,0.001559709,1.14E-07,1.77135E-10,5.05E-184,2.71E-21,2.43E-19,0.001559823,0.000689033,2.82E-07,1.26492E-17,7.51E-114,6.03E-23,3.10E-30,0.000689315
167.139,99.14219,100.245,99.37119,0.00679964,0.00322937,0.003309265,0.006335003,4.82E-06,0.000124026,1.59E-151,1.50E-15,9.15E-20,0.00646385,0.00309657,5.40E-07,8.36018E-10,3.06E-173,3.24E-20,1.93E-18,0.003097111,0.001370384,1.04E-06,1.51468E-16,7.34E-108,7.22E-22,6.90E-29,0.001371427
179.553,98.97304,100.156,99.30342,0.0175136,0.008649694,0.00310862,0.0125004,2.27E-05,0.000257387,9.62E-141,1.19E-14,1.10E-18,0.0127805,0.006124484,2.55E-06,3.94572E-09,1.85E-162,3.88E-19,1.53E-17,0.006127038,0.00271984,3.85E-06,1.81375E-15,7.18E-102,8.65E-21,1.54E-27,0.002723692
191.967,98.68196,100.008,99.24387,0.02759538,0.0169447,0.007573695,0.0244261,0.000107356,0.000534064,5.83E-130,9.39E-14,1.31E-17,0.0250675,0.0120234,1.20E-05,1.86225E-08,1.12E-151,4.65E-18,1.21E-16,0.0120354,0.005376065,1.42E-05,2.17188E-14,7.02E-96,1.04E-19,3.43E-26,0.005390293
204.381,98.09922,99.74174,99.12449,0.0512423,0.0272198,0.0136014,0.0468204,0.000506468,0.001107803,3.53E-119,7.43E-13,1.57E-16,0.0484347,0.0232669,5.68E-05,8.78916E-08,6.81E-141,5.57E-17,9.56E-16,0.0233238,0.0105415,5.26E-05,2.60071E-13,6.87E-90,1.24E-18,7.63E-25,0.010594
216.794,97.0934,99.27614,98.905,0.0909914,0.0482693,0.0234274,0.086402,0.002385527,0.002296397,2.14E-108,5.88E-12,1.88E-15,0.091084,0.0438258,0.000268013,4.14819E-07,4.13E-130,6.67E-16,7.57E-15,0.0440942,0.0203534,0.000194099,3.11423E-12,6.72E-84,1.49E-17,1.70E-23,0.0205475
229.208,95.36158,98.50304,98.48966,0.157933,0.0812593,0.046871,0.147502,0.0111525,0.004753809,1.30E-97,4.66E-11,2.25E-14,0.163408,0.07865724,0.001263395,1.9578E-06,2.50E-119,7.99E-15,5.99E-14,0.0799226,0.0381848,0.0007165,3.72912E-11,6.57E-78,1.78E-16,3.79E-22,0.0389013
241.622,92.45843,97.17878,97.75771,0.26418,0.136079,0.0807275,0.211144,0.0503883,0.009813422,7.87E-87,3.69E-10,2.70E-13,0.271346,0.130216,0.005928821,9.24003E-06,1.52E-108,9.56E-14,4.74E-13,0.136154,0.0681072,0.002639813,4.46544E-10,6.42E-72,2.13E-15,8.43E-21,0.070747
254.036,87.78341,95.06622,96.61003,0.428707,0.224352,0.122345,0.200385,0.197926,0.0201421,4.77E-76,2.92E-09,3.23E-12,0.418453,0.189563,0.0272492,4.36072E-05,9.20E-98,1.15E-12,3.76E-12,0.216856,0.112002,0.009657533,5.34714E-09,6.28E-66,2.55E-14,1.88E-19,0.12166
266.45,80.4919,91.63706,94.663,0.641509,0.343242,0.200137,0.0986028,0.521393,0.0408643,2.89E-65,2.31E-08,3.87E-11,0.66086,0.220839,0.114459,0.000205754,5.58E-87,1.37E-11,2.97E-11,0.335503,0.163806,0.0344477,6.40293E-08,6.14E-60,3.05E-13,4.19E-18,0.198254
278.8639,69.82137,86.42953,91.59971,0.916796,0.518892,0.312531,0.0293846,0.797541,0.0810276,1.75E-54,1.83E-07,4.63E-10,0.907954,0.165257,0.355565,0.000969807,3.38E-76,1.64E-10,2.35E-10,0.521793,0.202777,0.112898,7.66717E-07,6.01E-54,3.66E-12,9.32E-17,0.315676
291.2778,56.66528,78.92872,86.86573,1.01177,0.697765,0.466633,0.00709846,8.71E-01,0.153908,1.06E-43,1.45E-06,5.54E-09,1.03194,0.0660774,0.641462,0.004548872,2.05E-65,1.97E-09,1.86E-09,0.712089,0.186667,0.294349,9.18091E-06,5.87E-48,4.38E-11,2.08E-15,0.481024
303.692,49.1903,69.52545,80.18751,0.292823,0.795498,0.616029,0.001590603,2.87E-02,0.271613,6.44E-33,1.15E-05,6.64E-08,0.3019,0.0174098,7.54E-01,0.0208606,1.24E-54,2.35E-08,1.48E-08,0.791788,0.0996121,0.520231,0.000109915,5.75E-42,5.24E-10,4.63E-14,0.619953
316.106,43.9537,60.36383,72.04207,0.435682,0.620578,0.67951,0.000345921,3.01E-05,0.430081,3.90E-22,9.07E-05,7.95E-07,0.430548,0.003948796,4.99E-01,0.0868374,7.53E-44,2.82E-07,1.17E-07,0.5899,0.0305612,0.643877,0.001313136,5.62E-36,6.28E-09,1.03E-12,0.675751
328.519,38.31795,55.34501,63.89497,0.525346,0.357347,0.59296,7.42E-05,3.04875E-08,0.520967,2.33E-11,0.000712923,9.51839E-06,0.521763,0.000856938,5.50E-02,0.263242,4.56E-33,3.38E-06,9.25E-07,0.319096,0.007231756,5.57E-01,0.0153001,5.49E-30,7.52E-08,2.30E-11,0.579368
340.933,38.05907,50.29052,58.09976,0.024104,0.467899,0.301696,1.58E-05,3.08374E-11,0.000353887,0.0232622,0.005341957,0.000113893,0.0290877,1.83E-04,2.64E-03,0.462131,2.76E-22,4.04E-05,7.32E-06,0.465006,0.001583555,1.69E-01,0.138492,5.37E-24,9.00E-07,5.11E-10,0.309444
353.347,37.59149,43.99634,53.67225,0.0455295,0.477224,0.433559,3.36E-06,3.11813E-14,2.84E-08,0.005950977,0.029383,0.001351742,0.03668908,3.90E-05,1.19E-04,0.46221,1.63676E-11,0.000481261,5.79289E-05,0.462908,0.000339357,1.81E-02,0.422742,5.25E-18,1.08E-05,1.14E-08,0.441198
365.761,36.84799,42.01027,47.72182,0.06962837,0.0294852,0.509807,7.14E-07,0,2.16E-12,0.000475846,0.0570429,0.0146356,0.0721551,8.29E-06,5.34807E-06,1.28E-03,0.0226389,0.005430617,0.000457388,0.0298228,7.22E-05,1.55E-03,0.507166,5.13E-12,1.29E-04,2.54E-07,0.508917
378.175,35.64608,41.51249,42.35627,0.102297,0.0524573,0.160155,1.51E-07,0,2.02E-16,3.14596E-05,0.0212151,0.0815741,0.102821,1.76E-06,2.40097E-07,5.54E-07,0.006759162,0.0382396,0.003546235,0.04854753,1.53E-05,1.30E-04,0.130874,4.93056E-06,0.001523239,5.65055E-06,0.132552
390.589,34.86311,40.71344,41.90213,0.0466282,0.08206664,0.0409563,3.21E-08,0,0,2.05E-06,0.002343185,0.0430777,0.045423,3.73E-07,1.07787E-08,2.37E-10,7.11E-04,0.0569865,0.0241291,0.0818273,3.25E-06,1.08E-05,3.53E-04,0.0209068,0.0157118,0.000125755,0.0371113
403.003,34.68845,39.5335,41.21109,0.0102089,0.110252,0.0682762,6.80E-09,0,0,1.34E-07,0.00020119,1.72E-05,0.000218487,7.90E-08,4.8389E-10,1.01215E-13,6.07E-05,0.0180541,0.0903373,0.108452,6.90E-07,9.05E-07,7.12E-07,0.002858641,0.06681222,0.002746784,0.07242
415.417,34.49756,38.19898,40.20462,0.0146404,0.0335847,0.0948218,1.44E-09,0,0,8.70E-09,1.68E-05,4.39E-09,1.69E-05,1.67E-08,2.17232E-11,0,5.08E-06,0.002737627,3.02E-02,0.032919,1.46E-07,7.56E-08,1.43E-09,1.41E-04,0.0479832,0.0426977,0.0908223
427.831,34.33757,38.09653,38.85079,0.00968108,0.006451945,0.120881,3.05E-10,0,0,5.67E-10,1.41E-06,1.12E-12,1.41E-06,3.55E-09,9.75202E-13,0,4.24E-07,3.55E-04,1.05E-05,3.66E-04,3.10E-08,6.31E-09,2.89E-12,6.37E-06,0.007125546,0.114504,0.121636
440.245,34.13308,37.98151,38.13517,0.0107392,0.008325042,0.003171512,6.47E-11,0,0,3.69E-11,1.17E-07,2.79775E-16,1.18E-07,7.51E-10,4.36984E-14,0,3.54E-08,4.49E-05,2.71E-09,4.50E-05,6.56E-09,5.27106E-10,5.77E-15,2.86E-07,6.35E-04,1.79E-03,2.43E-03
452.658,33.99192,37.87467,38.10701,0.008330761,0.007273878,0.000946015,1.37E-11,0,0,2.40E-12,9.81E-09,0,9.83E-09,1.59E-10,2.00284E-15,0,2.96E-09,5.68E-06,6.89433E-13,5.68E-06,1.39E-09,4.40192E-11,0,1.28E-08,5.33E-05,1.85E-06,5.52E-05
465.072,33.87651,37.76286,38.06062,0.007097752,0.007043804,0.002093915,2.90E-12,0,0,1.57E-13,8.19E-10,0,8.22E-10,3.37E-11,0,0,2.47E-10,7.17E-07,1.6653E-16,7.17E-07,2.95E-10,3.6761E-12,0,5.76E-10,4.45E-06,1.87E-09,4.46E-06
477.486,33.77478,37.67569,38.02198,0.009048391,0.006275586,0.004430745,6.15E-13,0,0,1.02E-14,6.84E-11,0,6.91E-11,7.15E-12,0,0,2.06E-11,9.06E-08,0,9.06E-08,6.24E-11,3.07003E-13,0,2.59E-11,3.72E-07,1.88927E-12,3.72E-07
489.9,33.66426,37.58284,37.97106,0.007386192,0.007474823,0.006011218,1.30E-13,0,0,6.66E-16,5.71E-12,0,5.85E-12,1.51E-12,0,0,1.72E-12,1.14E-08,0,1.14E-08,1.32E-11,2.56106E-14,0,1.16E-12,3.11E-08,1.91847E-15,3.11E-08
497.539,33.59171,37.53872,37.93379,-0.0696979,-0.0754487,-0.07624278,5.02E-14,0,0,1.27E-16,1.24E-12,0,1.29E-12,5.83E-13,0,0,3.74E-13,3.20E-09,0,3.20E-09,5.09E-12,5.51115E-15,0,1.72E-13,6.74E-09,2.9976E-17,6.75E-09