File: src/DSC/Er_DSK.csv
#EXPORTTYPE:                 ;DATA COMPARE                                           ;DATA COMPARE                                           ;DATA COMPARE
#FILE:                       ;08.06.23_ Er_2+4_3kmin_30+500_N2-120.ngb-ds5           ;05.06.23_ Er_2+4_5kmin_30+500_N2-120.ngb-ds5           ;07.06.23_ Er_2+4_10kmin_30+500_N2-120.ngb-ds5
#FORMAT:                     ;NETZSCH5                                               ;NETZSCH5                                               ;NETZSCH5
#FTYPE:                      ;ANSI                                                   ;ANSI                                                   ;ANSI
#IDENTITY:                   ;Er_2+4                                                 ;Er_2+4                                                 ;Er_2+4
#DECIMAL:                    ;COMMA                                                  ;COMMA                                                  ;COMMA
#SEPARATOR:                  ;SEMICOLON                                              ;SEMICOLON                                              ;SEMICOLON
#MTYPE:                      ;DSC                                                    ;DSC                                                    ;DSC
#INSTRUMENT:                 ;NETZSCH STA 449F5                                      ;NETZSCH STA 449F5                                      ;NETZSCH STA 449F5
#PROJECT:                    ;                                                       ;                                                       ;
#DATE/TIME:                  ;08.06.2023 10:38:22 (UTC+3)                            ;05.06.2023 15:35:50 (UTC+3)                            ;07.06.2023 11:37:24 (UTC+3)
#CORR. FILE:                 ;11.05.23_correction for composite-3kmin_30-500Ñ.ngb-bs5;10.05.23_correction for composite-5kmin_30-500Ñ.ngb-bs5;29.04.22_correction for composite-10kmin_30+500_N2-120.ngb-bs5
#TEMPCAL:                    ;3kmin-N2_washer+Al2O3+cover.ngb-ts5                    ;5kmin-N2_washer+Al2O3+cover.ngb-ts5                    ;10kmin-N2_washer+Al2O3+cover.ngb-ts5
#SENSITIVITY:                ;3kmin-N2_washer+Al2O3+cover.ngb-es5                    ;5kmin-N2_washer+Al2O3+cover.ngb-es5                    ;10kmin-N2_washer+Al2O3+cover.ngb-ts5.ngb-es5
#LABORATORY:                 ;                                                       ;                                                       ;
#OPERATOR:                   ;                                                       ;                                                       ;
#REMARK:                     ;                                                       ;                                                       ;
#SAMPLE:                     ;1                                                      ;1                                                      ;1
#SAMPLE MASS /mg:            ;33,686                                                 ;21,38                                                  ;30,5855
#MATERIAL:                   ;                                                       ;                                                       ;
#REFERENCE:                  ;                                                       ;                                                       ;
#REFERENCE MASS /mg:         ;0                                                      ;0                                                      ;0
#TYPE OF CRUCIBLE:           ;DSC/TG pan Al2O3                                       ;DSC/TG pan Al2O3                                       ;DSC/TG pan Al2O3
#SAMPLE CRUCIBLE MASS /mg:   ;0                                                      ;0                                                      ;0
#REFERENCE CRUCIBLE MASS /mg:;0                                                      ;0                                                      ;0
#DSC RANGE /µV:              ;5000                                                   ;5000                                                   ;5000
#TG RANGE /mg:               ;35000                                                  ;35000                                                  ;35000
#TAU-R:                      ;---                                                    ;---                                                    ;---
#CORR. CODE:                 ;020                                                    ;020                                                    ;020
#EXO:                        ;+1                                                     ;+1                                                     ;+1
#RANGE:                      ;30°C/3,0(K/min)/500°C                                  ;30°C/5,0(K/min)/500°C                                  ;30°C/10,0(K/min)/500°C
#SEGMENT:                    ;S1/1                                                   ;S1/1                                                   ;S1/1
#SEG. 1:                     ;30°C/3,0(K/min)/500°C                                  ;30°C/5,0(K/min)/500°C                                  ;30°C/10,0(K/min)/500°C

##Temp./°C;DSC/(mW/mg);DSC/(mW/mg);DSC/(mW/mg)
 30,66100;-3,473940e-003;-7,701759e-003;-7,348379e-003
 33,52574;-2,412196e-002;-3,844449e-002;-3,161676e-002
 36,39049;-3,483144e-002;-5,607722e-002;-5,003742e-002
 39,25523;-4,281618e-002;-6,981371e-002;-6,424397e-002
 42,11998;-4,932240e-002;-8,169599e-002;-7,598814e-002
 44,98472;-5,319123e-002;-9,005462e-002;-8,626501e-002
 47,84947;-5,647956e-002;-9,734720e-002;-9,497232e-002
 50,71421;-5,862348e-002;      -0,10316;      -0,10192
 53,57896;-5,990394e-002;      -0,10751;      -0,10756
 56,44370;-6,084164e-002;      -0,11048;      -0,11234
 59,30845;-6,128477e-002;      -0,11298;      -0,11619
 62,17319;-6,118334e-002;      -0,11522;      -0,11902
 65,03794;-6,100854e-002;      -0,11679;      -0,12108
 67,90268;-6,052112e-002;      -0,11867;      -0,12274
 70,76743;-5,968548e-002;      -0,11867;      -0,12366
 73,63217;-5,888890e-002;      -0,11863;      -0,12411
 76,49692;-5,764331e-002;      -0,11710;      -0,12432
 79,36166;-5,566291e-002;      -0,11480;      -0,12397
 82,22641;-5,350564e-002;      -0,11188;      -0,12320
 85,09115;-5,070814e-002;      -0,10857;      -0,12225
 87,95590;-4,828072e-002;      -0,10507;      -0,12090
 90,82064;-4,594933e-002;      -0,10103;      -0,11872
 93,68539;-4,252602e-002;-9,685464e-002;      -0,11574
 96,55013;-3,917082e-002;-9,364859e-002;      -0,11252
 99,41488;-3,611266e-002;-8,832428e-002;      -0,10764
102,27962;-3,279064e-002;-8,345704e-002;      -0,10243
105,14437;-2,947304e-002;-7,843980e-002;-9,667131e-002
108,00911;-2,623979e-002;-7,311777e-002;-9,029168e-002
110,87386;-2,261601e-002;-6,757224e-002;-8,364628e-002
113,73860;-1,929956e-002;-6,195536e-002;-7,695417e-002
116,60335;-1,606649e-002;-5,681561e-002;-6,995113e-002
119,46809;-1,308070e-002;-5,046288e-002;-6,299839e-002
122,33284;-9,567455e-003;-4,502814e-002;-5,558438e-002
125,19758;-6,397838e-003;-4,016165e-002;-4,788422e-002
128,06233;-2,679186e-003;-3,569396e-002;-4,110911e-002
130,92707; 5,732604e-004;-3,031048e-002;-3,479189e-002
133,79182; 4,017150e-003;-2,546152e-002;-2,830872e-002
136,65656; 7,653305e-003;-2,047974e-002;-2,070483e-002
139,52131; 1,166368e-002;-1,555445e-002;-1,361990e-002
142,38605; 1,550129e-002;-1,049508e-002;-6,063347e-003
145,25080; 1,999140e-002;-5,176713e-003; 1,809722e-003
148,11554; 2,388539e-002; 8,572076e-004; 9,980393e-003
150,98029; 2,808544e-002; 7,000304e-003; 1,834080e-002
153,84503; 3,259637e-002; 1,358253e-002; 2,646693e-002
156,70978; 3,754601e-002; 2,054124e-002; 3,531895e-002
159,57452; 4,208509e-002; 2,783755e-002; 4,444375e-002
162,43927; 4,700118e-002; 3,501925e-002; 5,354003e-002
165,30401; 5,196209e-002; 4,233676e-002; 6,282019e-002
168,16876; 5,689722e-002; 4,908237e-002; 7,224555e-002
171,03350; 6,154422e-002; 5,556540e-002; 8,257759e-002
173,89825; 6,624095e-002; 6,166684e-002; 9,239383e-002
176,76299; 7,089171e-002; 6,778708e-002;       0,10264
179,62774; 7,563765e-002; 7,395509e-002;       0,11295
182,49248; 7,989529e-002; 7,924096e-002;       0,12284
185,35723; 8,446236e-002; 8,359624e-002;       0,13223
188,22197; 2,647217e-003; 4,534273e-003; 9,247898e-002
191,08672;      -0,15818;      -0,22066;-8,323838e-002
193,95146;      -0,11301;      -0,25014;      -0,22284
196,81621; 2,557444e-002;-9,349264e-002;      -0,26584
199,68095; 9,347936e-002; 3,433710e-002;      -0,20521
202,54570;       0,11550; 9,265696e-002;-7,990951e-002
205,41044;       0,12307;       0,11836; 2,547677e-002
208,27519;       0,12606;       0,12832;       0,10099
211,13993;       0,12721;       0,13170;       0,15527
214,00468;       0,12689;       0,13128;       0,19318
216,86942;       0,12508;       0,12844;       0,21974
219,73417;       0,12175;       0,12386;       0,23750
222,59891;       0,11678;       0,11825;       0,24962
225,46366;       0,10993;       0,10900;       0,25640
228,32840;       0,10075; 9,908439e-002;       0,25898
231,19315; 8,880594e-002; 8,375137e-002;       0,25722
234,05789; 7,390681e-002; 6,490717e-002;       0,25164
236,92264; 5,726499e-002; 4,196742e-002;       0,24195
239,78738; 3,819728e-002; 1,486022e-002;       0,22699
242,65213; 1,697552e-002;-1,731607e-002;       0,20796
245,51687;-6,024733e-003;-5,430803e-002;       0,18296
248,38162;-3,059455e-002;-9,741828e-002;       0,15242
251,24636;-5,567851e-002;      -0,14431;       0,11797
254,11111;-8,006670e-002;      -0,19584; 7,823210e-002
256,97585;      -0,10344;      -0,25090; 3,419997e-002
259,84060;      -0,12440;      -0,30684;-1,471701e-002
262,70534;      -0,14295;      -0,36542;-6,815416e-002
265,57009;      -0,15780;      -0,42366;      -0,12500
268,43483;      -0,16959;      -0,47933;      -0,18440
271,29958;      -0,23488;      -0,53343;      -0,24627
274,16432;      -0,36330;      -0,58328;      -0,30962
277,02907;      -0,47535;      -0,62872;      -0,38079
279,89381;      -0,55856;      -0,66984;      -0,48381
282,75856;      -0,62015;      -0,70862;      -0,61469
285,62330;      -0,66204;      -0,74226;      -0,74860
288,48805;      -0,67674;      -0,76978;      -0,86602
291,35279;      -0,65446;      -0,78907;      -0,98304
294,21754;      -0,59182;      -0,79624;      -1,09017
297,08228;      -0,46839;      -0,78571;      -1,18770
299,94703;      -0,23471;      -0,75028;      -1,27372
302,81177;       0,10495;      -0,66474;      -1,34166
305,67652;       0,14791;      -0,50565;      -1,39211
308,54126;       0,14206;      -0,27390;      -1,42615
311,40601;       0,13310; 7,985283e-002;      -1,43920
314,27075;       0,12385;       0,17487;      -1,42984
317,13550;       0,11460;       0,16944;      -1,39583
320,00024;       0,10223;       0,13319;      -1,34565
322,86499; 8,843776e-002; 8,455332e-002;      -1,27606
325,72973; 7,369515e-002; 3,389799e-002;      -1,18318
328,59448; 5,494702e-002;-1,776523e-002;      -1,05978
331,45922; 2,940227e-002;-7,390570e-002;      -0,90913
334,32397; 8,098988e-004;      -0,13156;      -0,72709
337,18871;-2,903500e-002;      -0,19130;      -0,51418
340,05346;-5,849969e-002;      -0,25252;      -0,33653
342,91820;-8,211728e-002;      -0,31440;      -0,28584
345,78295;-9,650674e-002;      -0,36977;      -0,31434
348,64769;-9,743206e-002;      -0,41055;      -0,37865
351,51244;-7,060094e-002;      -0,43123;      -0,45303
354,37718; 4,614181e-002;      -0,42037;      -0,53114
357,24193;       0,28926;      -0,34201;      -0,60982
360,10667;       0,30358; 4,014979e-002;      -0,68288
362,97142;       0,28840;       0,26583;      -0,74331
365,83616;       0,27060;       0,29725;      -0,78727
368,70091;       0,25152;       0,27440;      -0,81196
371,56565;       0,23017;       0,23638;      -0,81230
374,43040;       0,21060;       0,19053;      -0,78394
377,29514;       0,18849;       0,14346;      -0,71897
380,15989;       0,16531; 9,656318e-002;      -0,60807
383,02463;       0,14304; 4,814851e-002;      -0,43448
385,88938;       0,19478; 3,042002e-003;      -0,12941
388,75412;       0,27924; 7,297232e-002; 7,942723e-002
391,61887;       0,29484;       0,22038;       0,11818
394,48361;       0,30125;       0,26812; 9,145070e-002
397,34836;       0,30608;       0,28679; 3,842219e-002
400,21310;       0,31086;       0,29692;-2,323034e-002
403,07785;       0,31540;       0,30343;-8,525988e-002
405,94259;       0,31999;       0,30878;      -0,13615
408,80734;       0,32463;       0,31299;      -0,13166
411,67208;       0,32907;       0,31558; 9,912673e-002
414,53683;       0,33308;       0,31687;       0,25698
417,40157;       0,33631;       0,31820;       0,34054
420,26632;       0,34000;       0,31954;       0,38668
423,13106;       0,34357;       0,31972;       0,41529
425,99581;       0,34790;       0,32015;       0,43383
428,86055;       0,35096;       0,31942;       0,44577
431,72530;       0,35409;       0,31876;       0,45535
434,59004;       0,35821;       0,31699;       0,46188
437,45479;       0,36155;       0,31564;       0,46798
440,31953;       0,36555;       0,31572;       0,47356
443,18428;       0,37045;       0,31431;       0,47801
446,04902;       0,37504;       0,31189;       0,48183
448,91377;       0,37896;       0,31005;       0,48674
451,77851;       0,38255;       0,30770;       0,49047
454,64326;       0,38454;       0,30613;       0,49446
457,50800;       0,38610;       0,30608;       0,49700
460,37275;       0,38776;       0,30594;       0,49888
463,23749;       0,38995;       0,30549;       0,50162
466,10224;       0,39208;       0,30442;       0,50311
468,96698;       0,39442;       0,30153;       0,50374
471,83173;       0,39728;       0,29709;       0,50365
474,69647;       0,39978;       0,29107;       0,50429
477,56122;       0,40223;       0,28573;       0,50440
480,42596;       0,40412;       0,28123;       0,50372
483,29071;       0,40554;       0,27743;       0,50374
486,15545;       0,40588;       0,27358;       0,50302
489,02020;       0,40665;       0,27100;       0,50219
491,88494;       0,40767;       0,26770;       0,50144
494,74969;       0,40848;       0,26295;       0,50033
497,61443;       0,41086;       0,25808;       0,50015