File: src/DSC/Gd_DSK.csv
#EXPORTTYPE:                 ;DATA COMPARE                                                   ;DATA COMPARE                                           ;DATA COMPARE
#FILE:                       ;24.05.23_ Gd_2+4_10kmin_30+1000_N2-120.ngb-ds5                 ;12.05.23_ Gd_2+4_3kmin_30+500_N2-120.ngb-ds5           ;12.05.23_ Gd_2+4_5kmin_30+500_N2-120.ngb-ds5
#FORMAT:                     ;NETZSCH5                                                       ;NETZSCH5                                               ;NETZSCH5
#FTYPE:                      ;ANSI                                                           ;ANSI                                                   ;ANSI
#IDENTITY:                   ;Gd_2+4                                                         ;Gd_2+4                                                 ;Gd_2+4
#DECIMAL:                    ;COMMA                                                          ;COMMA                                                  ;COMMA
#SEPARATOR:                  ;SEMICOLON                                                      ;SEMICOLON                                              ;SEMICOLON
#MTYPE:                      ;DSC                                                            ;DSC                                                    ;DSC
#INSTRUMENT:                 ;NETZSCH STA 449F5                                              ;NETZSCH STA 449F5                                      ;NETZSCH STA 449F5
#PROJECT:                    ;                                                               ;                                                       ;
#DATE/TIME:                  ;24.05.2023 16:54:46 (UTC+3)                                    ;12.05.2023 11:55:38 (UTC+3)                            ;26.05.2023 11:21:43 (UTC+3)
#CORR. FILE:                 ;18.03.22_correction for composite-10kmin_40+1000_N2-120.ngb-bs5;11.05.23_correction for composite-3kmin_30-500Ñ.ngb-bs5;10.05.23_correction for composite-5kmin_30-500Ñ.ngb-bs5
#TEMPCAL:                    ;10kmin-N2_washer+Al2O3+cover.ngb-ts5                           ;3kmin-N2_washer+Al2O3+cover.ngb-ts5                    ;5kmin-N2_washer+Al2O3+cover.ngb-ts5
#SENSITIVITY:                ;10kmin-N2_washer+Al2O3+cover.ngb-ts5.ngb-es5                   ;3kmin-N2_washer+Al2O3+cover.ngb-es5                    ;5kmin-N2_washer+Al2O3+cover.ngb-es5
#LABORATORY:                 ;                                                               ;                                                       ;
#OPERATOR:                   ;                                                               ;                                                       ;
#REMARK:                     ;                                                               ;                                                       ;
#SAMPLE:                     ;1                                                              ;1                                                      ;1
#SAMPLE MASS /mg:            ;20,4395                                                        ;24,6870                                                ;19,9405
#MATERIAL:                   ;                                                               ;                                                       ;
#REFERENCE:                  ;                                                               ;                                                       ;
#REFERENCE MASS /mg:         ;0                                                              ;0                                                      ;0
#TYPE OF CRUCIBLE:           ;DSC/TG pan Al2O3                                               ;DSC/TG pan Al2O3                                       ;DSC/TG pan Al2O3
#SAMPLE CRUCIBLE MASS /mg:   ;0                                                              ;0                                                      ;0
#REFERENCE CRUCIBLE MASS /mg:;0                                                              ;0                                                      ;0
#DSC RANGE /µV:              ;5000                                                           ;5000                                                   ;5000
#TG RANGE /mg:               ;35000                                                          ;35000                                                  ;35000
#TAU-R:                      ;---                                                            ;---                                                    ;---
#CORR. CODE:                 ;020                                                            ;020                                                    ;020
#EXO:                        ;+1                                                             ;+1                                                     ;+1
#RANGE:                      ;25°C/10,0(K/min)/1000°C                                        ;30°C/3,0(K/min)/500°C                                  ;30°C/5,0(K/min)/500°C
#SEGMENT:                    ;S1/2                                                           ;S1/1                                                   ;S1/1
#SEG. 1:                     ;25°C/10,0(K/min)/1000°C                                        ;30°C/3,0(K/min)/500°C                                  ;30°C/5,0(K/min)/500°C

##Temp./°C;DSC/(mW/mg);DSC/(mW/mg);DSC/(mW/mg)
 24,97800; 1,299248e-002;              ;
 29,75258; 2,249322e-002;-6,177435e-003;-2,472806e-003
 34,52715; 3,217929e-002;-2,031716e-002;-2,927444e-002
 39,30173; 4,514057e-002;-2,890581e-002;-4,006191e-002
 44,07630; 6,033384e-002;-3,296897e-002;-4,651989e-002
 48,85088; 7,683481e-002;-3,459298e-002;-4,929747e-002
 53,62545; 9,528622e-002;-3,353166e-002;-4,876534e-002
 58,40003;       0,11413;-3,267040e-002;-4,668623e-002
 63,17460;       0,13355;-3,044872e-002;-4,266237e-002
 67,94918;       0,15402;-2,675021e-002;-3,731341e-002
 72,72375;       0,17518;-2,291013e-002;-3,061251e-002
 77,49833;       0,19675;-1,697863e-002;-2,336631e-002
 82,27290;       0,21886;-1,049053e-002;-1,537815e-002
 87,04748;       0,24116;-4,771690e-003;-6,577061e-003
 91,82205;       0,26414; 1,815462e-003; 2,647499e-003
 96,59663;       0,28733; 9,179004e-003; 1,195549e-002
101,37120;       0,30990; 1,639460e-002; 2,192914e-002
106,14578;       0,33418; 2,340593e-002; 3,251989e-002
110,92035;       0,35870; 3,116337e-002; 4,359284e-002
115,69493;       0,38445; 3,934414e-002; 5,524103e-002
120,46950;       0,40951; 4,760596e-002; 6,638391e-002
125,24408;       0,43520; 5,624736e-002; 7,917969e-002
130,01865;       0,46080; 6,446966e-002; 9,124791e-002
134,79323;       0,48653; 7,193175e-002;       0,10312
139,56780;       0,51187; 7,910231e-002;       0,11447
144,34238;       0,53610; 8,619295e-002;       0,12519
149,11695;       0,55977; 9,454457e-002;       0,13381
153,89153;       0,57923;       0,10219;       0,14106
158,66610;       0,59590; 9,761679e-002;       0,15060
163,44068;       0,61051; 8,437043e-002;       0,15700
168,21525;       0,62808; 7,280677e-002;       0,14734
172,98983;       0,64055; 6,512437e-002;       0,12985
177,76440;       0,62712; 5,106348e-002;       0,11860
182,53898;       0,59351; 2,489475e-002;       0,10811
187,31355;       0,53868;-4,424309e-002; 7,829846e-002
192,08813;-7,049203e-002;      -0,32537;      -0,39228
196,86270;-3,645706e-002;-6,150704e-002;      -0,11020
201,63728;       0,28866;-5,523356e-002; 3,000807e-002
206,41185;       0,40775;-9,409174e-002; 1,972229e-002
211,18643;       0,41118;      -0,12597;-3,081787e-002
215,96100;       0,34777;      -0,14813;-9,627169e-002
220,73558;       0,24553;      -0,17821;      -0,17410
225,51015;       0,12302;      -0,13163;      -0,25197
230,28473;-2,409118e-003;-5,176892e-002;      -0,30892
235,05930;      -0,11275;-1,708064e-002;      -0,31449
239,83388;      -0,19128; 1,502801e-003;      -0,27350
244,60845;      -0,21637; 1,927249e-002;      -0,16515
249,38303;      -0,17148; 8,709893e-002;-2,832918e-002
254,15760;-5,148755e-002;       0,29049; 3,638525e-002
258,93218;       0,10902;       0,31334; 2,058935e-002
263,70675;       0,27620;       0,28455;-3,239626e-002
268,48133;       0,37065;       0,26340;-7,080499e-002
273,25590;       0,37718;       0,24293;-5,485415e-003
278,03048;       0,32866;       0,22045;       0,44388
282,80505;       0,26030;       0,23035;       0,55768
287,57963;       0,20435;       0,22390;       0,48290
292,35420;       0,20783;       0,15682;       0,40173
297,12878;       0,36942; 9,771131e-002;       0,32280
301,90335;       0,84026; 3,770946e-002;       0,24857
306,67793;       1,25523;-2,730367e-002;       0,18405
311,45250;       1,37805;-9,736141e-002;       0,16245
316,22708;       1,36597;      -0,14949;       0,35299
321,00165;       1,30331;-2,424892e-002;       0,24424
325,77623;       1,22373;       0,48201;       0,13333
330,55080;       1,14553;       0,49391; 4,950987e-002
335,32538;       1,09412;       0,47042;-3,179785e-002
340,09995;       1,12459;       0,44375;      -0,17111
344,87453;       1,16381;       0,41570;      -0,30606
349,64910;       0,93945;       0,39350;      -0,38587
354,42368;       0,67761;       0,36895;      -0,31777
359,19825;       0,43883;       0,34665;       0,40469
363,97283;       0,24752;       0,31969;       0,57363
368,74740;       0,14385;       0,28549;       0,58488
373,52198;       0,15574;       0,24434;       0,58961
378,29655;       0,34493;       0,19863;       0,57425
383,07113;       0,98829;       0,25900;       0,51016
387,84570;       1,75154;       0,30664;       0,45318
392,62028;       1,96122;       0,32962;       0,38803
397,39485;       1,98271;       0,35331;       0,30971
402,16943;       1,91873;       0,37854;       0,21437
406,94400;       1,84348;       0,40462; 9,005578e-002
411,71858;       1,76526;       0,43401;-6,918841e-003
416,49315;       1,67832;       0,46400;       0,24943
421,26773;       1,57804;       0,49313;       0,28937
426,04230;       1,43273;       0,52319;       0,29848
430,81688;       1,30510;       0,54895;       0,29869
435,59145;       1,46738;       0,57216;       0,29815
440,36603;       1,81844;       0,59567;       0,30012
445,14060;       1,92793;       0,61597;       0,30028
449,91518;       1,97374;       0,63615;       0,29961
454,68975;       2,00074;       0,65371;       0,29930
459,46433;       2,02309;       0,67098;       0,29517
464,23890;       2,04251;       0,68655;       0,28419
469,01348;       2,05907;       0,69986;       0,28385
473,78805;       2,07813;       0,71103;       0,28607
478,56263;       2,09619;       0,72120;       0,28802
483,33720;       2,11545;       0,72948;       0,29163
488,11178;       2,13767;       0,73489;       0,29581
492,88635;       2,16065;       0,73791;       0,30079
497,66093;       2,18356;       0,74134;       0,30486
502,43550;       2,20770;       0,74153;
507,21008;       2,23232;              ;
511,98465;       2,25652;              ;
516,75923;       2,28026;              ;
521,53380;       2,30441;              ;
526,30838;       2,32764;              ;
531,08295;       2,35199;              ;
535,85753;       2,37687;              ;
540,63210;       2,40143;              ;
545,40668;       2,42629;              ;
550,18125;       2,45340;              ;
554,95583;       2,48077;              ;
559,73040;       2,49317;              ;
564,50498;       2,52166;              ;
569,27955;       2,55409;              ;
574,05413;       2,58777;              ;
578,82870;       2,62392;              ;
583,60328;       2,65929;              ;
588,37785;       2,69715;              ;
593,15243;       2,72174;              ;
597,92700;       2,59420;              ;
602,70158;       1,79303;              ;
607,47615;       2,91030;              ;
612,25073;       2,98052;              ;
617,02530;       3,01692;              ;
621,79988;       3,04985;              ;
626,57445;       3,08497;              ;
631,34903;       3,12103;              ;
636,12360;       3,15719;              ;
640,89818;       3,19387;              ;
645,67275;       3,22958;              ;
650,44733;       3,26333;              ;
655,22190;       3,29845;              ;
659,99648;       3,33270;              ;
664,77105;       3,36928;              ;
669,54563;       3,40229;              ;
674,32020;       3,43527;              ;
679,09478;       3,46526;              ;
683,86935;       3,44502;              ;
688,64393;       3,13619;              ;
693,41850;       3,37311;              ;
698,19308;       3,54613;              ;
702,96765;       3,58620;              ;
707,74223;       3,56967;              ;
712,51680;       3,55037;              ;
717,29138;       3,54068;              ;
722,06595;       3,53967;              ;
726,84053;       3,54957;              ;
731,61510;       3,56330;              ;
736,38968;       3,57600;              ;
741,16425;       3,58791;              ;
745,93883;       3,60239;              ;
750,71340;       3,61452;              ;
755,48798;       3,62804;              ;
760,26255;       3,64249;              ;
765,03713;       3,66090;              ;
769,81170;       3,68339;              ;
774,58628;       3,70224;              ;
779,36085;       3,72484;              ;
784,13543;       3,74815;              ;
788,91000;       3,77183;              ;
793,68458;       3,79626;              ;
798,45915;       3,81817;              ;
803,23373;       3,84507;              ;
808,00830;       3,87497;              ;
812,78288;       3,89887;              ;
817,55745;       3,92686;              ;
822,33203;       3,95473;              ;
827,10660;       3,98083;              ;
831,88118;       4,00502;              ;
836,65575;       4,03017;              ;
841,43033;       4,05508;              ;
846,20490;       4,08108;              ;
850,97948;       4,09934;              ;
855,75405;       4,12102;              ;
860,52863;       4,14155;              ;
865,30320;       4,16293;              ;
870,07778;       4,17940;              ;
874,85235;       4,19758;              ;
879,62693;       4,21349;              ;
884,40150;       4,23001;              ;
889,17608;       4,24125;              ;
893,95065;       4,25542;              ;
898,72523;       4,27057;              ;
903,49980;       4,28032;              ;
908,27438;       4,29208;              ;
913,04895;       4,30071;              ;
917,82353;       4,31061;              ;
922,59810;       4,31832;              ;
927,37268;       4,32575;              ;
932,14725;       4,33210;              ;
936,92183;       4,33867;              ;
941,69640;       4,34224;              ;
946,47098;       4,34577;              ;
951,24555;       4,35303;              ;
956,02013;       4,35497;              ;
960,79470;       4,35141;              ;
965,56928;       4,35575;              ;
970,34385;       4,36475;              ;
975,11843;       4,35702;              ;
979,89300;       4,35550;              ;
984,66758;       4,36122;              ;
989,44215;       4,35860;              ;
994,21673;       4,34524;              ;
996,12656;       4,34317;              ;